Data from 0.6bar_Subt2__0__17-07-40-584.txt Node

Date: Thu Jan 06 17:07:40 CET 2022
User: fsatto
Spectrometer: OFX01956
Trigger mode: 0
Integration Time (sec): 6.000000E-3
Scans to average: 10
Nonlinearity correction enabled: false
Boxcar width: 0
Storing dark spectrum: false
XAxis mode: Wavelengths
Number of Pixels in Spectrum: 2136
>>>>>Begin Spectral Data<<<<<
158.236	9.8
158.705	7.6
159.174	7.7
159.643	16.9
160.112	22.4
160.582	23.8
161.051	10.9
161.52	16.7
161.988	10.3
162.457	28.2
162.926	11
163.395	37.8
163.864	15.3
164.332	-2.8
164.801	5.5
165.269	16.4
165.738	23.6
166.206	1.8
166.675	26.5
167.143	11.6
167.612	12.2
168.08	12
168.548	7.8
169.016	19
169.484	19.2
169.952	29.8
170.42	16.5
170.888	21.6
171.356	8.9
171.824	9.2
172.292	15.1
172.759	6.7
173.227	-6.2
173.695	19.1
174.162	22.8
174.63	26
175.097	20.8
175.565	26.6
176.032	16
176.499	6.9
176.967	19.2
177.434	7.8
177.901	14.9
178.368	15.3
178.835	22.8
179.302	41.8
179.769	23.9
180.236	1
180.703	17.1
181.17	29.3
181.637	23.5
182.103	10.5
182.57	4.8
183.036	18.3
183.503	24.8
183.97	-1
184.436	12.9
184.902	7.4
185.369	20.1
185.835	14
186.301	33
186.767	3.4
187.234	18.2
187.7	22.5
188.166	11.5
188.632	16.4
189.098	17.3
189.563	21.8
190.029	3.8
190.495	14.4
190.961	23.7
191.426	20.5
191.892	18.3
192.358	-1.6
192.823	-0.4
193.289	2.6
193.754	7.6
194.219	3.7
194.685	28.4
195.15	11.3
195.615	18
196.08	19.8
196.545	16.8
197.01	-5.8
197.475	17.7
197.94	8.2
198.405	10.5
198.87	-7.4
199.335	23.9
199.8	-3.2
200.264	53.9
200.729	61.4
201.193	38.5
201.658	47.1
202.122	35.6
202.587	26.2
203.051	65
203.516	86.5
203.98	74.4
204.444	75.5
204.908	76.7
205.372	108.3
205.836	131.7
206.3	109.2
206.764	89.7
207.228	112
207.692	84.3
208.156	138.8
208.62	125.2
209.083	134.1
209.547	138.8
210.011	143.3
210.474	145.3
210.938	138.1
211.401	140.4
211.864	145.5
212.328	183
212.791	189.8
213.254	187.3
213.717	189.7
214.181	248.2
214.644	305
215.107	360.3
215.57	357.7
216.033	408.3
216.495	505
216.958	612.2
217.421	723.1
217.884	759
218.346	780.1
218.809	889.8
219.272	980.2
219.734	1131.6
220.196	1307.6
220.659	1411.9
221.121	1441.8
221.584	1511.2
222.046	1633.5
222.508	1896.2
222.97	2188.4
223.432	2336.1
223.894	2477.1
224.356	2673.4
224.818	3005.2
225.28	3299.4
225.742	3660.8
226.204	4186
226.665	4254.6
227.127	4285.6
227.589	4460.9
228.05	5147.1
228.512	5842.9
228.973	6020.1
229.435	5533.3
229.896	5109.4
230.357	5380
230.818	6365.6
231.28	7073.1
231.741	7312.5
232.202	6820.4
232.663	6127.4
233.124	6062.2
233.585	7086.6
234.046	8224.3
234.507	8683.9
234.967	7554.1
235.428	6380.4
235.889	5945.1
236.349	6850.1
236.81	7966.8
237.271	8294.9
237.731	7740.8
238.191	6912
238.652	6886.8
239.112	7899
239.572	9661.3
240.033	10935.3
240.493	10452.1
240.953	9142.4
241.413	8838.8
241.873	9925.3
242.333	11465.5
242.793	11986.7
243.253	11498.5
243.712	10809.8
244.172	10907.8
244.632	11889.1
245.092	13543.2
245.551	14473.8
246.011	14062.6
246.47	13538.4
246.93	13673
247.389	15258.4
247.848	17594.8
248.308	19135.3
248.767	20035.3
249.226	19699.7
249.685	19484.7
250.144	20522.7
250.603	23441.1
251.062	26546.2
251.521	27507.7
251.98	27187.8
252.439	26872.3
252.897	27780.7
253.356	30048.3
253.815	31897.6
254.273	32083.5
254.732	31044.6
255.19	28517.4
255.649	26610.7
256.107	26711.4
256.566	27392.3
257.024	28970.4
257.482	28977.2
257.94	27933.4
258.398	28207.3
258.856	28017.1
259.315	26994.7
259.772	26393.7
260.23	25314.5
260.688	23838.5
261.146	22034.6
261.604	21214.4
262.062	22056.9
262.519	23744.6
262.977	24396.3
263.434	23016.1
263.892	22071.2
264.349	22296.6
264.807	23823.3
265.264	24707.8
265.721	25208.7
266.179	25746
266.636	24481.4
267.093	23112.2
267.55	23530.9
268.007	25010
268.464	25860
268.921	25028.8
269.378	23100.9
269.835	21756.5
270.291	21085.8
270.748	20784.9
271.205	20655.8
271.661	19620.1
272.118	18099.6
272.574	17509.5
273.031	17004.7
273.487	16374.6
273.944	16332.1
274.4	16462.1
274.856	16691.7
275.312	15740.2
275.768	15125.7
276.225	15247
276.681	15812.7
277.137	15782.1
277.593	15600.8
278.048	15044.1
278.504	14864.8
278.96	14553.5
279.416	14038.1
279.871	13287.4
280.327	13180.8
280.783	13669
281.238	13997.9
281.694	13416.8
282.149	12615.5
282.604	11961.7
283.06	11286.5
283.515	10958.5
283.97	10802.9
284.425	10476.8
284.88	10053.9
285.335	9277.6
285.79	8488.4
286.245	7817.7
286.7	8119.1
287.155	8525.4
287.61	8445.5
288.064	8268.3
288.519	8411.9
288.974	8372.8
289.428	7861.9
289.883	7681.9
290.337	7905.8
290.792	8247.3
291.246	8530
291.7	8671.9
292.155	8712.4
292.609	8635.2
293.063	8648.2
293.517	8881.1
293.971	9155.2
294.425	9496.9
294.879	9476
295.333	9174.6
295.787	8863.2
296.241	8701.7
296.694	8635.8
297.148	8905.2
297.602	9120
298.055	9063.6
298.509	8621.7
298.962	7896
299.416	7483.5
299.869	7384.2
300.322	7441.1
300.775	7263.7
301.229	7050.7
301.682	6723.8
302.135	6347.4
302.588	5966.3
303.041	5776.7
303.494	5675.4
303.947	5494.1
304.4	5288.1
304.852	5084.4
305.305	4731.9
305.758	4394.2
306.21	4013.2
306.663	3816.1
307.115	3643.6
307.568	3616.4
308.02	3439.4
308.473	3192.9
308.925	2946.5
309.377	2707.7
309.829	2619.1
310.282	2576.9
310.734	2534.7
311.186	2529.7
311.638	2400.5
312.09	2314.2
312.542	2273.2
312.993	2215.7
313.445	2120
313.897	2082
314.349	1958
314.8	1942.4
315.252	1851.6
315.703	1819.3
316.155	1731.1
316.606	1614.1
317.058	1560.8
317.509	1611.3
317.96	1567.1
318.411	1512.9
318.863	1537.1
319.314	1571.5
319.765	1540.6
320.216	1504.3
320.667	1395.1
321.117	1339.9
321.568	1361.4
322.019	1388.6
322.47	1334.3
322.921	1256.3
323.371	1181.7
323.822	1078.8
324.272	1004.4
324.723	939.5
325.173	916.4
325.623	829.2
326.074	790.2
326.524	757.2
326.974	858
327.424	1133.7
327.874	1289.6
328.325	992.8
328.775	711.4
329.224	622.7
329.674	611.6
330.124	567.3
330.574	552.7
331.024	537
331.473	474
331.923	452.1
332.373	399
332.822	369.9
333.272	340.7
333.721	322.6
334.17	304
334.62	311.4
335.069	277.5
335.518	254.2
335.967	253.1
336.416	220.8
336.865	223
337.314	220.1
337.763	173.8
338.212	176.3
338.661	170.2
339.11	162
339.558	142.3
340.007	130.2
340.456	149.8
340.904	151
341.353	133
341.801	119.2
342.25	117.9
342.698	115.7
343.146	135.2
343.595	95.1
344.043	119.1
344.491	90.5
344.939	85.7
345.387	83.4
345.835	65.5
346.283	69.6
346.731	60.1
347.179	51.1
347.626	53.9
348.074	58.4
348.522	57
348.969	48.8
349.417	17.9
349.865	82
350.312	70.8
350.759	58
351.207	40
351.654	25.1
352.101	21
352.548	44.3
352.996	26.3
353.443	61.5
353.89	35.6
354.337	29.8
354.784	28.2
355.231	52.3
355.677	28.5
356.124	19.7
356.571	31.4
357.018	26.4
357.464	27.3
357.911	40.9
358.357	24.6
358.804	20.3
359.25	44.5
359.696	19.2
360.143	10.4
360.589	19.2
361.035	11.7
361.481	39.5
361.927	10.7
362.373	27.8
362.819	41.6
363.265	7.3
363.711	13.8
364.157	23.4
364.603	-2
365.048	24
365.494	20.2
365.94	31.2
366.385	39.5
366.831	16.9
367.276	1
367.722	29.9
368.167	13.7
368.612	10.3
369.057	8.1
369.503	17.5
369.948	0.2
370.393	40.8
370.838	3.7
371.283	41.9
371.728	29.4
372.173	2.3
372.617	1.4
373.062	-19.1
373.507	11.7
373.951	11.2
374.396	23.3
374.841	11.9
375.285	15.8
375.729	4.5
376.174	-0.2
376.618	36.2
377.062	11.7
377.507	16.3
377.951	6.3
378.395	43.9
378.839	13.4
379.283	19.9
379.727	20.2
380.171	13.4
380.615	21.4
381.059	12.7
381.502	16.6
381.946	11
382.39	39.9
382.833	11.2
383.277	4.8
383.72	20.4
384.164	25.8
384.607	11.9
385.05	20
385.494	6.9
385.937	12.6
386.38	4
386.823	38.7
387.266	42
387.709	5.1
388.152	29.5
388.595	2.7
389.038	-1.8
389.481	5.2
389.923	12.5
390.366	6.7
390.809	20.5
391.251	11.2
391.694	30.5
392.136	18.4
392.579	-8.5
393.021	1.1
393.463	9.9
393.906	-18.8
394.348	-0.3
394.79	12.8
395.232	16.1
395.674	24.3
396.116	1
396.558	24.6
397	17.6
397.442	49
397.884	25.5
398.325	11
398.767	25.4
399.209	1.5
399.65	1.7
400.092	28.3
400.533	22.6
400.974	16.7
401.416	8.2
401.857	9
402.298	23.4
402.74	25.4
403.181	10.4
403.622	22
404.063	31.7
404.504	12
404.945	20.4
405.386	13.2
405.826	19.9
406.267	5.5
406.708	10.2
407.149	18.8
407.589	23.1
408.03	-6
408.47	-3.7
408.911	17.1
409.351	-6
409.791	17.1
410.232	10.7
410.672	10.1
411.112	19.9
411.552	15.4
411.992	23.4
412.432	26.9
412.872	20.5
413.312	24.3
413.752	1.3
414.192	12.1
414.632	27.3
415.071	1.6
415.511	27.8
415.951	3.8
416.39	17.6
416.83	27.9
417.269	17.9
417.708	-1.8
418.148	18.8
418.587	18
419.026	6.2
419.465	4.9
419.904	48.6
420.344	28.8
420.783	13.8
421.221	25.8
421.66	5.2
422.099	26.3
422.538	14.5
422.977	20.1
423.415	7.2
423.854	14.1
424.293	10.2
424.731	1.9
425.17	36.4
425.608	4.6
426.046	26.3
426.485	-3.9
426.923	21.5
427.361	28.7
427.799	20.4
428.237	7.5
428.675	16.9
429.113	19.5
429.551	17.9
429.989	5.2
430.427	3.7
430.865	13.1
431.303	7.6
431.74	12.7
432.178	14.7
432.615	19.5
433.053	8.7
433.49	23.1
433.928	12.4
434.365	17.9
434.802	9.3
435.24	29.6
435.677	14.5
436.114	6.5
436.551	23.2
436.988	11.7
437.425	8.2
437.862	2.5
438.299	8.5
438.736	32.1
439.172	-3.7
439.609	12.6
440.046	10.4
440.482	31.4
440.919	34.7
441.355	11.1
441.792	19.3
442.228	14
442.665	4.3
443.101	11.2
443.537	45.5
443.973	32
444.409	30.9
444.845	18.8
445.281	15
445.717	20.5
446.153	17.4
446.589	21.6
447.025	20.1
447.461	20.2
447.896	15.1
448.332	24.2
448.768	24.3
449.203	35.9
449.639	6.1
450.074	1.4
450.509	34.1
450.945	30.2
451.38	15.6
451.815	23
452.25	17.2
452.685	12.4
453.12	28.7
453.555	31.9
453.99	13.3
454.425	49.4
454.86	22.8
455.295	22.3
455.73	17
456.164	-12.5
456.599	33.8
457.033	24.6
457.468	23
457.902	23.4
458.337	23.7
458.771	23.5
459.205	43.5
459.64	29.7
460.074	39.2
460.508	27.1
460.942	19
461.376	9.2
461.81	25.6
462.244	41
462.678	16.8
463.112	26.5
463.545	9.1
463.979	20.9
464.413	18.9
464.846	7
465.28	17.1
465.713	22.3
466.147	42.3
466.58	38
467.014	10.5
467.447	14.7
467.88	5.8
468.313	30.7
468.746	32.9
469.179	24
469.612	9.1
470.045	30.6
470.478	23.7
470.911	15.2
471.344	15.7
471.777	19.5
472.209	24.3
472.642	17.8
473.074	14.8
473.507	48.7
473.939	35
474.372	28.7
474.804	9.8
475.236	16
475.669	31.2
476.101	39.1
476.533	55.7
476.965	7.1
477.397	32.8
477.829	20.5
478.261	24.2
478.693	25.1
479.125	22.1
479.557	31.9
479.988	27.2
480.42	39.3
480.852	25.9
481.283	37.5
481.715	22.9
482.146	31.6
482.577	37.5
483.009	12
483.44	27
483.871	32.4
484.302	26.6
484.734	28.5
485.165	32.2
485.596	19.4
486.027	40.2
486.457	35.5
486.888	30.5
487.319	29.1
487.75	36.6
488.181	47.6
488.611	26
489.042	22.7
489.472	25.2
489.903	46
490.333	23.5
490.764	10.2
491.194	43.1
491.624	35.6
492.054	30.5
492.484	17.4
492.915	24.4
493.345	24.8
493.775	19.1
494.204	10.6
494.634	25
495.064	11
495.494	41.5
495.924	12
496.353	26.7
496.783	19
497.212	24.2
497.642	6.9
498.071	34
498.501	14.4
498.93	17.3
499.359	24.2
499.789	19
500.218	36
500.647	38
501.076	37
501.505	34
501.934	16
502.363	32.2
502.792	36
503.221	38.8
503.649	25.9
504.078	23.2
504.507	41.5
504.935	8.9
505.364	23.8
505.792	26.1
506.221	20.4
506.649	10.4
507.077	13.2
507.506	43.1
507.934	55.7
508.362	2.1
508.79	3.3
509.218	4.5
509.646	2.1
510.074	14.2
510.502	6.3
510.93	18.7
511.357	20.6
511.785	11.8
512.213	9.4
512.64	16.7
513.068	23.7
513.496	21.7
513.923	12.8
514.35	6.7
514.778	4.8
515.205	46.4
515.632	18.6
516.059	16.1
516.486	-1
516.914	13.7
517.341	18.6
517.768	27.5
518.194	11.9
518.621	8.8
519.048	12.5
519.475	28.6
519.902	28.3
520.328	26.9
520.755	-2.7
521.181	15.6
521.608	15.4
522.034	8.3
522.461	6.4
522.887	30.7
523.313	30.8
523.739	17.2
524.165	15.5
524.592	26
525.018	21
525.444	16.2
525.869	22.1
526.295	-17.4
526.721	-2.1
527.147	7.8
527.573	27.7
527.998	35.5
528.424	-1.4
528.849	-2.9
529.275	7.3
529.7	6.9
530.126	26.9
530.551	15
530.976	21.8
531.402	27.5
531.827	5.4
532.252	23.8
532.677	3.3
533.102	19.3
533.527	25.9
533.952	13.5
534.377	12.7
534.801	20
535.226	21.4
535.651	27.8
536.076	21.5
536.5	13.4
536.925	26.4
537.349	6.3
537.773	32.9
538.198	15.4
538.622	40
539.046	25
539.471	21.7
539.895	27.1
540.319	25.5
540.743	5.9
541.167	6.3
541.591	-10.4
542.015	14.3
542.438	6.7
542.862	33.3
543.286	10.6
543.71	3.2
544.133	6
544.557	11.4
544.98	-2.1
545.404	26.6
545.827	13.9
546.25	-7.5
546.674	5
547.097	23.9
547.52	3.6
547.943	18.8
548.366	39.7
548.789	-16.3
549.212	6.6
549.635	16.4
550.058	36.7
550.481	31.1
550.903	47.1
551.326	34.1
551.749	14.2
552.171	-0.3
552.594	34.5
553.016	12.4
553.438	23.6
553.861	20.4
554.283	16.9
554.705	19.7
555.128	3.7
555.55	-5.9
555.972	52.5
556.394	2.9
556.816	37.8
557.238	40
557.659	17.3
558.081	-8.8
558.503	19.6
558.925	20.1
559.346	-7
559.768	16.3
560.189	39.2
560.611	9.7
561.032	35.3
561.454	19.5
561.875	13.9
562.296	16.9
562.718	4.1
563.139	36.5
563.56	14.9
563.981	26.8
564.402	17.2
564.823	13.6
565.244	33.1
565.664	30.1
566.085	15.6
566.506	32.2
566.927	14.5
567.347	49.3
567.768	24.1
568.188	27.9
568.609	19
569.029	14.5
569.449	10.4
569.87	49.1
570.29	19.2
570.71	18.8
571.13	34
571.55	23.4
571.97	39.5
572.39	12.7
572.81	39.7
573.23	2.6
573.65	36.8
574.069	28.5
574.489	20.2
574.909	23.8
575.328	53.9
575.748	29.2
576.167	9.3
576.587	6.7
577.006	40
577.425	1.7
577.844	29.2
578.264	-10.9
578.683	20.5
579.102	31.9
579.521	35.2
579.94	19.2
580.359	-13.7
580.778	10.2
581.196	7.5
581.615	41.5
582.034	35.3
582.452	-2.5
582.871	22.4
583.29	18.6
583.708	17.4
584.126	16.9
584.545	15
584.963	27.8
585.381	7.2
585.8	18.8
586.218	31.2
586.636	-11.5
587.054	30
587.472	16.3
587.89	-4.3
588.308	4.6
588.725	39.5
589.143	23.4
589.561	36.4
589.979	10.4
590.396	34.6
590.814	1.7
591.231	-5.8
591.649	29
592.066	8.1
592.483	11.5
592.901	-1.8
593.318	21
593.735	4
594.152	-2.6
594.569	-3
594.986	20.5
595.403	24.1
595.82	14.4
596.237	22.5
596.654	24.3
597.07	23.8
597.487	22.6
597.904	16
598.32	18
598.737	-26.5
599.153	-8.2
599.57	-1
599.986	7.8
600.402	19.6
600.818	-6.9
601.235	6
601.651	12.5
602.067	1.4
602.483	-3.7
602.899	19
603.315	25.7
603.73	26.8
604.146	17.2
604.562	29.8
604.978	47.5
605.393	23.3
605.809	16.2
606.224	2.5
606.64	30.2
607.055	26.4
607.471	43.6
607.886	-9
608.301	-11.3
608.716	40
609.131	27.2
609.547	18.6
609.962	10.7
610.377	13
610.791	17.8
611.206	25.6
611.621	8.5
612.036	27.8
612.451	17.4
612.865	28.4
613.28	7
613.694	30.4
614.109	21.4
614.523	24
614.938	25.8
615.352	10.3
615.766	47.5
616.18	30.3
616.595	-5.7
617.009	17.8
617.423	38.1
617.837	11.1
618.251	7.2
618.664	21.1
619.078	3.4
619.492	30.2
619.906	23.3
620.319	36.2
620.733	32
621.146	24.9
621.56	45.7
621.973	5
622.387	44.5
622.8	35.3
623.213	25.3
623.627	11.9
624.04	38.1
624.453	28.1
624.866	35.5
625.279	60.9
625.692	57.5
626.105	54.9
626.518	37.8
626.93	51.4
627.343	48.7
627.756	48.8
628.168	29.3
628.581	74.8
628.993	60.6
629.406	46
629.818	35
630.231	42.6
630.643	51
631.055	85.5
631.467	45.7
631.879	58.7
632.291	48.8
632.703	71.7
633.115	74.3
633.527	89.2
633.939	83.4
634.351	74.7
634.763	101.6
635.174	116.6
635.586	109.1
635.997	103.1
636.409	124.2
636.82	141.2
637.232	112
637.643	144.2
638.054	116.4
638.466	119.5
638.877	173.1
639.288	151.8
639.699	121.9
640.11	143.5
640.521	139.5
640.932	140.2
641.343	140.6
641.753	143.1
642.164	137.9
642.575	165.6
642.986	178.7
643.396	147.2
643.807	147.6
644.217	156.6
644.627	162.7
645.038	162
645.448	160.1
645.858	169.5
646.269	165.4
646.679	177.1
647.089	161.3
647.499	152.6
647.909	163.5
648.319	121.8
648.728	145.1
649.138	116.5
649.548	145.4
649.958	139.3
650.367	128.6
650.777	115.4
651.186	128.3
651.596	165.5
652.005	122.5
652.415	115
652.824	117.1
653.233	107.7
653.642	108.2
654.052	112.3
654.461	106.4
654.87	101
655.279	91.1
655.688	103.9
656.096	81
656.505	100
656.914	101.2
657.323	87.9
657.731	79.5
658.14	130.3
658.548	102.2
658.957	96.4
659.365	78.8
659.774	114.1
660.182	89.6
660.59	100
660.998	105.8
661.407	92.2
661.815	88.4
662.223	96
662.631	70.9
663.039	98
663.446	94.9
663.854	109.4
664.262	99.8
664.67	81.6
665.077	90.8
665.485	89.7
665.892	67.5
666.3	63.4
666.707	63.9
667.115	55.9
667.522	72.8
667.929	95.8
668.337	54.5
668.744	59.8
669.151	58
669.558	65.7
669.965	88.3
670.372	58.5
670.779	44.3
671.185	45.6
671.592	28.6
671.999	43.8
672.405	39.6
672.812	49.9
673.219	45.6
673.625	8.1
674.032	13.2
674.438	40.2
674.844	31.3
675.25	36.4
675.657	8.4
676.063	25.6
676.469	8.8
676.875	34.1
677.281	19.4
677.687	8.9
678.093	14.9
678.499	21.1
678.904	14.5
679.31	8.1
679.716	22.9
680.121	0.6
680.527	13.5
680.932	40.6
681.338	4.7
681.743	25.4
682.148	-2.9
682.554	27.3
682.959	7.1
683.364	7.4
683.769	-4.6
684.174	-1.2
684.579	23.5
684.984	2
685.389	18.3
685.794	14.4
686.199	30.1
686.603	6.8
687.008	22.7
687.413	8
687.817	9.8
688.222	-10.3
688.626	9
689.03	8.1
689.435	14.7
689.839	-10.9
690.243	14.6
690.647	12.4
691.051	11.3
691.456	-5.2
691.859	-6.9
692.263	6.6
692.667	-11.6
693.071	4.7
693.475	14.3
693.879	17.8
694.282	4.4
694.686	1.5
695.089	42.4
695.493	32.9
695.896	13
696.3	21.2
696.703	3.2
697.106	4.8
697.509	-10.9
697.913	22.2
698.316	-0.1
698.719	27.6
699.122	1.9
699.525	-0.7
699.928	15.8
700.33	33
700.733	30.6
701.136	14.7
701.539	10.9
701.941	14.1
702.344	13.9
702.746	6.6
703.149	21.3
703.551	-3.5
703.953	6.8
704.356	-6
704.758	37.5
705.16	24.3
705.562	-5.3
705.964	11.7
706.366	26.8
706.768	0.1
707.17	-3.2
707.572	5.6
707.973	20.6
708.375	19.2
708.777	13.2
709.178	7.3
709.58	28.7
709.981	19
710.383	12.6
710.784	8.1
711.186	36.6
711.587	-5.6
711.988	0.7
712.389	15.3
712.79	24.1
713.191	22.2
713.592	42.1
713.993	-0.8
714.394	1.5
714.795	21.8
715.196	-4
715.596	-7.9
715.997	9.5
716.398	-8
716.798	13
717.199	19.7
717.599	11.9
718	1.6
718.4	15.8
718.8	-1.8
719.2	14.9
719.6	8.9
720.001	23.8
720.401	24.9
720.801	21
721.201	32.2
721.6	18.9
722	41.3
722.4	5.6
722.8	11.4
723.199	-5.5
723.599	10.9
723.998	5.4
724.398	43.9
724.797	1.1
725.197	-9.5
725.596	6.6
725.995	7.5
726.394	8.3
726.794	5.6
727.193	-5
727.592	3.9
727.991	5.6
728.39	-5.1
728.789	6.9
729.187	7.7
729.586	-3.6
729.985	2.1
730.383	7.9
730.782	-9.7
731.181	10.1
731.579	32.8
731.977	1
732.376	10
732.774	9.9
733.172	1.2
733.571	4.3
733.969	12.4
734.367	-4.3
734.765	20.4
735.163	9.7
735.561	2.3
735.959	1.2
736.356	34.6
736.754	19.8
737.152	0.7
737.55	21.6
737.947	21.2
738.345	21.2
738.742	16.3
739.14	45.4
739.537	29.4
739.934	31.5
740.331	21
740.729	22.9
741.126	28.5
741.523	37.3
741.92	23.8
742.317	21.4
742.714	25.8
743.111	27.3
743.507	14.3
743.904	30.7
744.301	17.2
744.697	36.5
745.094	53.4
745.491	7.3
745.887	38.8
746.283	34.1
746.68	16.5
747.076	28.5
747.472	30.4
747.869	22.1
748.265	25.6
748.661	41.5
749.057	38.6
749.453	50.1
749.849	20
750.244	59.8
750.64	51.2
751.036	26
751.432	37.1
751.827	45.5
752.223	56.1
752.618	55.3
753.014	29
753.409	50.9
753.805	39
754.2	44
754.595	49
754.99	36.5
755.385	39.8
755.78	38.1
756.175	34.8
756.57	48.7
756.965	50.8
757.36	55.3
757.755	47.9
758.15	69.8
758.544	60.2
758.939	49.2
759.334	56.6
759.728	85
760.122	70.4
760.517	88.1
760.911	62.7
761.306	70.6
761.7	56.3
762.094	81.9
762.488	61.6
762.882	47.6
763.276	39.1
763.67	53.2
764.064	58.6
764.458	59.7
764.852	70
765.245	57.4
765.639	78.7
766.033	93.3
766.426	89.6
766.82	86.2
767.213	100.8
767.606	68.8
768	62.9
768.393	58
768.786	56.1
769.179	85.4
769.572	53.8
769.966	72.1
770.358	60.5
770.751	59.6
771.144	56.4
771.537	67.3
771.93	66.1
772.323	69.2
772.715	57.5
773.108	46.7
773.5	57.5
773.893	50.3
774.285	79.3
774.678	33
775.07	47.3
775.462	33.8
775.854	17.8
776.247	35.1
776.639	25.3
777.031	49.4
777.423	30.2
777.815	38.5
778.207	59
778.598	47.7
778.99	77
779.382	70.5
779.773	85.4
780.165	113.1
780.557	79.3
780.948	96.9
781.339	106.1
781.731	71.4
782.122	113.9
782.513	111.3
782.905	86.3
783.296	92.5
783.687	121
784.078	81.1
784.469	84.9
784.86	83.2
785.251	64.7
785.641	92.9
786.032	77.2
786.423	71.8
786.813	92.2
787.204	76.5
787.594	88.3
787.985	71.7
788.375	69.8
788.766	57.1
789.156	61.3
789.546	100.5
789.936	54.4
790.326	73
790.717	65.9
791.107	54.9
791.497	69.8
791.886	62.4
792.276	43.4
792.666	37
793.056	50.7
793.445	35.9
793.835	43.6
794.225	33.6
794.614	35.2
795.004	68.7
795.393	67.3
795.782	30.9
796.172	20.6
796.561	34.5
796.95	30.9
797.339	43.9
797.728	65.1
798.117	43
798.506	28.7
798.895	36.3
799.284	27.8
799.673	83
800.061	37.5
800.45	37.7
800.839	24.5
801.227	28.5
801.616	7.3
802.004	24.8
802.392	40.8
802.781	12.3
803.169	27.7
803.557	15.4
803.945	32.3
804.333	23.9
804.721	27.3
805.109	15.5
805.497	42.3
805.885	16.9
806.273	16.7
806.661	16.5
807.048	0.3
807.436	10.6
807.824	21.2
808.211	15.4
808.599	22.1
808.986	19.6
809.373	40
809.761	31.8
810.148	16.7
810.535	20.7
810.922	34.4
811.309	32.6
811.696	11.1
812.083	23.5
812.47	25.2
812.857	9.8
813.244	32.4
813.631	11.8
814.017	49.1
814.404	12.3
814.791	27.9
815.177	36.7
815.564	32.5
815.95	10.5
816.336	30
816.723	17.2
817.109	21.5
817.495	34.3
817.881	11.8
818.267	17.2
818.653	21.6
819.039	18.2
819.425	9.8
819.811	11.5
820.197	25
820.582	7.7
820.968	29.1
821.354	4.8
821.739	17.9
822.125	2
822.51	-1.4
822.895	20.1
823.281	8.8
823.666	33.3
824.051	24.7
824.436	-8
824.822	4.1
825.207	26.3
825.592	-1.7
825.976	8
826.361	10.1
826.746	23
827.131	7.3
827.516	29.7
827.9	9.1
828.285	15.1
828.669	2.9
829.054	12.6
829.438	15.9
829.823	4.6
830.207	14.5
830.591	25.4
830.975	38.8
831.36	29.4
831.744	-1.7
832.128	28.2
832.512	4.3
832.895	32.8
833.279	4.8
833.663	27.6
834.047	-1.5
834.431	22.3
834.814	29.6
835.198	15.1
835.581	21.4
835.965	9.9
836.348	19.6
836.731	13.9
837.115	7.6
837.498	0.4
837.881	29.6
838.264	21.6
838.647	-31.3
839.03	12.4
839.413	12.2
839.796	12.3
840.179	11.5
840.562	5.9
840.944	12.4
841.327	42.6
841.71	15
842.092	28.3
842.475	-2.5
842.857	17.3
843.24	24.5
843.622	16.3
844.004	12.3
844.386	29
844.769	15.2
845.151	5
845.533	30.4
845.915	19.5
846.297	22
846.678	41.5
847.06	-7.6
847.442	22.5
847.824	20.7
848.205	14.6
848.587	10.3
848.968	8.7
849.35	28.5
849.731	29.2
850.113	4.9
850.494	4.5
850.875	11.6
851.256	16.8
851.638	19.3
852.019	-7.4
852.4	5.7
852.781	44.7
853.161	14.8
853.542	21.3
853.923	21.2
854.304	18.1
854.685	6.9
855.065	-6.8
855.446	7.1
855.826	-7.8
856.207	-5.5
856.587	28.6
856.967	10.4
857.348	11.4
857.728	3.5
858.108	1.2
858.488	6.5
858.868	12.1
859.248	-9.4
859.628	13.7
860.008	24.3
860.388	-11.3
860.768	15.3
861.147	2.5
861.527	14.8
861.907	9.8
862.286	18.7
862.666	30.3
863.045	4
863.424	32.5
863.804	10.3
864.183	12.4
864.562	21.5
864.941	8.6
865.32	29.3
865.699	32.7
866.078	15.7
866.457	22.7
866.836	27.3
867.215	17.1
867.594	5
867.972	-13.2
868.351	17.6
868.729	24.9
869.108	4.2
869.486	18.4
869.865	15.1
870.243	4.2
870.621	0.9
871	5.5
871.378	25.2
871.756	20.3
872.134	27.9
872.512	16.9
872.89	9.8
873.268	7.1
873.646	27
874.023	5.4
874.401	-3.2
874.779	9.2
875.156	9
875.534	2.1
875.911	7.2
876.289	40.7
876.666	5.1
877.043	22.5
877.421	20.1
877.798	52
878.175	18.2
878.552	12.1
878.929	13.3
879.306	12.8
879.683	31.9
880.06	25.6
880.437	16.9
880.813	7.4
881.19	17.9
881.567	11.5
881.943	-6.9
882.32	2.3
882.696	5.2
883.073	29.6
883.449	18.4
883.825	17.5
884.202	14.3
884.578	26.7
884.954	18
885.33	1.7
885.706	20
886.082	23.7
886.458	11.3
886.834	20.5
887.209	-2.4
887.585	-2.9
887.961	7.1
888.336	23.2
888.712	31.2
889.087	27
889.463	-10.1
889.838	17.7
890.213	14.6
890.589	16.6
890.964	22.1
891.339	11.1
891.714	6
892.089	16.5
892.464	15.2
892.839	32.3
893.214	12.4
893.589	6.3
893.963	24.6
894.338	3.7
894.713	16.8
895.087	35
895.462	17.8
895.836	19.1
896.211	18
896.585	8.3
896.959	-2.4
897.334	10.8
897.708	9.6
898.082	9.4
898.456	22.4
898.83	5.3
899.204	2.5
899.578	-9.5
899.952	38.9
900.325	17.6
900.699	-6
901.073	6.4
901.446	31.7
901.82	9.1
902.193	12.8
902.567	17
902.94	19.2
903.313	18.1
903.687	20.4
904.06	0.7
904.433	8.4
904.806	38.7
905.179	-0.1
905.552	-9.4
905.925	14.8
906.298	15.4
906.671	18.2
907.043	9.4
907.416	27.2
907.789	27.6
908.161	29.7
908.534	15.1
908.906	27.6
909.279	2.1
909.651	34.7
910.023	-3.7
910.396	26.2
910.768	19.7
911.14	19.9
911.512	7.7
911.884	5.4
912.256	9
912.628	17.8
912.999	30.8
913.371	3.3
913.743	26
914.115	19.6
914.486	9.6
914.858	13.8
915.229	1.3
915.601	20.7
915.972	13.3
916.343	18.5
916.715	33.3
917.086	12.5
917.457	39.7
917.828	27.9
918.199	24
918.57	17.8
918.941	-10.6
919.312	25.1
919.682	25.8
920.053	5.2
920.424	-2.6
920.794	30.2
921.165	6.8
921.536	22.3
921.906	22.2
922.276	3.3
922.647	42.2
923.017	21.2
923.387	7.9
923.757	22
924.127	20.4
924.497	25.3
924.867	29.9
925.237	21.6
925.607	6.7
925.977	36.6
926.347	35.3
926.716	36.3
927.086	-3
927.456	25.5
927.825	25.3
928.195	23.7
928.564	27.8
928.933	24.3
929.303	11.9
929.672	35.7
930.041	18.8
930.41	36.2
930.779	14.5
931.148	8.4
931.517	3.8
931.886	2.7
932.255	30
932.624	21.7
932.993	25.8
933.361	31.7
933.73	29.8
934.098	22.6
934.467	6
934.835	-2.7
935.204	18.6
935.572	28.5
935.94	6.3
936.308	5.2
936.677	13.1
937.045	21
937.413	13.7
937.781	27.4
938.149	20.5
938.516	28
938.884	-1.1
939.252	6.3
939.62	8.9
939.987	28
940.355	26.6
940.722	23.9
941.09	12.3
941.457	1.8
941.825	34.3
942.192	14.3
942.559	17.5
942.926	16.3
943.293	34.5
943.66	16.7
944.027	-0.4
944.394	15.5
944.761	22.7
945.128	5.8
945.495	16
945.861	32.8
946.228	37.9
946.595	37.8
946.961	19.8
947.328	4.2
947.694	26.2
948.06	-13.4
948.427	19
948.793	37.6
949.159	17.7
949.525	38.7
949.891	-7
950.257	38.8
950.623	11.8
950.989	7.3
951.355	37.4
951.721	13.5
952.087	2
952.452	15.8
952.818	27.3
953.183	3.8
953.549	11.5
953.914	38.6
954.28	31.6
954.645	35.8
955.01	22.8
955.375	7.3
955.741	15.7
956.106	30.8
956.471	45.1
956.836	13.8
957.201	22.8
957.566	38.9
957.93	18.7
958.295	22.6
958.66	-6.2
959.024	2.4
959.389	8.9
959.753	4.2
960.118	19.2
960.482	16.4
960.847	20.8
961.211	33.4
961.575	-3.8
961.939	15.4
962.303	20
962.667	26.2
963.031	7.2
963.395	-2.4
963.759	35.8
964.123	2
964.487	4.3
964.851	14.7
965.214	29.1
965.578	25.3
965.941	0.1
966.305	12.2
966.668	2.2
967.032	5.6
967.395	10.6
967.758	31.9
968.121	21.5
968.484	27.2
968.847	16.9
969.21	42.6
969.573	11.3
969.936	14.5
970.299	18
970.662	24.9
971.025	11.5
971.387	11.1
971.75	9.6
972.112	-5.5
972.475	0.9
972.837	29.8
973.2	13.2
973.562	13.1
973.924	12.2
974.286	24.3
974.649	18.7
975.011	15.7
975.373	-3
975.735	38.6
976.097	21
976.458	8.2
976.82	3.1
977.182	18.4
977.544	-1.4
977.905	25.9
978.267	3.9
978.628	-7.2
978.99	10.1
979.351	6.8
979.712	20.3
980.074	3.6
980.435	18.8
980.796	-12.8
981.157	-3
981.518	-5
981.879	17.1
982.24	1.7
982.601	16.2
982.962	-15.3
983.323	10.4
983.683	18.8
984.044	12.6
984.404	-16.3
984.765	19
985.125	15.4
985.486	9.6
985.846	22.5
986.206	21.7
986.567	26.2
986.927	30
987.287	32.3
987.647	12.9
988.007	40.1
988.367	2.3
988.727	7.2
989.087	14.8
989.446	29.7
989.806	18.5
990.166	6.2
990.525	17.9
990.885	18.6
991.244	-6.2
991.604	12.7
991.963	-1.5
992.322	26.5
992.682	6
993.041	-2.8
993.4	6
993.759	14.7
994.118	10
994.477	31.7
994.836	16.7
995.195	27.4
995.553	2.4
995.912	13.8
996.271	26.2
996.629	23.6
996.988	11.5
997.346	23.3
997.705	13.3
998.063	15.8
998.422	12.7
998.78	6.4
999.138	11.9
999.496	9.3
999.854	11.2
1000.212	28.6
1000.57	27.4
1000.928	27.9
1001.286	18.8
1001.644	10.3
1002.001	10.8
1002.359	22.7
1002.717	3.8
1003.074	27.1
1003.432	28
1003.789	9.9
1004.147	6.4
1004.504	0.5
1004.861	6.6
1005.218	26.4
1005.576	8.4
1005.933	24.2
1006.29	27.6
1006.647	-3.6
1007.004	-8.5
1007.36	9.2
1007.717	21.4
1008.074	-13
1008.431	3.5
1008.787	16.1
1009.144	6.6
1009.5	23
1009.857	17.4
1010.213	-7.6
1010.569	23.6
1010.926	27.1
1011.282	7.1
1011.638	24.2
1011.994	0.5
1012.35	-1.7
1012.706	-14.5
1013.062	1.8
1013.418	9
1013.774	-1
1014.13	-3.2
1014.485	17.3
1014.841	9.9
1015.197	0.8
1015.552	1.7
1015.907	5.9
1016.263	-7.3
1016.618	32.7
1016.974	0.2
1017.329	0.2
1017.684	14
1018.039	-2.5
1018.394	14.1
1018.749	18.7
1019.104	8.4
1019.459	26.9
1019.814	13.8
1020.168	8.2
1020.523	3.1
1020.878	4.7
1021.232	25.1
1021.587	24
1021.941	44.9
1022.296	-0.2
1022.65	-10.2
1023.004	-12.2
1023.359	5.7
1023.713	17.4
1024.067	-16.1
1024.421	-14.4
1024.775	21.8
1025.129	-16.6
1025.483	18.4
1025.837	-27.6
1026.19	18.6
1026.544	18.4
1026.898	-4
1027.251	-4.5
1027.605	-3.6
1027.958	26.9
1028.312	5
1028.665	-13
1029.018	10.3
1029.372	-2.7
1029.725	-3.5
1030.078	4.4
1030.431	3.5
1030.784	-25.8
1031.137	25.4
1031.49	10.2
1031.843	-8
1032.195	-3.5
1032.548	-3.5
1032.901	0.1
1033.253	3.5
1033.606	-0.5
1033.958	-7.6
1034.311	6.2
1034.663	19.3
1035.016	-21.3
1035.368	15.4
1035.72	30.6
1036.072	-1.2
1036.424	9
1036.776	-9.3
1037.128	14.9
1037.48	-17.6
