Data from 1.0bar_Subt2__0__17-08-23-927.txt Node

Date: Thu Jan 06 17:08:23 CET 2022
User: fsatto
Spectrometer: OFX01956
Trigger mode: 0
Integration Time (sec): 6.000000E-3
Scans to average: 10
Nonlinearity correction enabled: false
Boxcar width: 0
Storing dark spectrum: false
XAxis mode: Wavelengths
Number of Pixels in Spectrum: 2136
>>>>>Begin Spectral Data<<<<<
158.236	10.9
158.705	7.4
159.174	0.8
159.643	18.2
160.112	18.4
160.582	26.1
161.051	13
161.52	24.4
161.988	14.6
162.457	25.8
162.926	16.6
163.395	40.5
163.864	16.8
164.332	-3.7
164.801	12.8
165.269	20.7
165.738	18.9
166.206	3.6
166.675	33.1
167.143	12
167.612	16.2
168.08	9.2
168.548	11.1
169.016	23.7
169.484	26
169.952	34.5
170.42	19.5
170.888	29.4
171.356	6.5
171.824	10.7
172.292	17.5
172.759	18.7
173.227	5.4
173.695	18.3
174.162	29.2
174.63	31.8
175.097	21.8
175.565	26.7
176.032	23.5
176.499	13.4
176.967	17.9
177.434	16.4
177.901	19.1
178.368	25.4
178.835	17.6
179.302	41
179.769	27
180.236	10.7
180.703	20.3
181.17	31
181.637	21
182.103	14.3
182.57	11.2
183.036	13.9
183.503	22.7
183.97	5.4
184.436	8.8
184.902	7.7
185.369	23.7
185.835	12.2
186.301	24.6
186.767	11.7
187.234	15.3
187.7	24.2
188.166	5.7
188.632	14.3
189.098	24.5
189.563	25.7
190.029	0.3
190.495	12.3
190.961	29.1
191.426	23.4
191.892	26.4
192.358	-6.8
192.823	2.7
193.289	4.7
193.754	11.5
194.219	6.7
194.685	34.3
195.15	13
195.615	17
196.08	16
196.545	15.6
197.01	-1.5
197.475	16.5
197.94	12.1
198.405	13.9
198.87	-2.4
199.335	27.8
199.8	-3.8
200.264	52.5
200.729	56.8
201.193	48.7
201.658	45.2
202.122	39.5
202.587	42.4
203.051	61
203.516	91
203.98	75.2
204.444	72.5
204.908	72.1
205.372	123.3
205.836	143.4
206.3	126.3
206.764	132.7
207.228	143.2
207.692	126.4
208.156	192.4
208.62	203.1
209.083	222
209.547	251.7
210.011	293.1
210.474	300.2
210.938	345.3
211.401	368.6
211.864	417.1
212.328	446.4
212.791	459.6
213.254	494.1
213.717	510.7
214.181	597.8
214.644	672
215.107	722.9
215.57	755.6
216.033	881.4
216.495	1011.8
216.958	1149.2
217.421	1227.2
217.884	1328.1
218.346	1471.1
218.809	1602.4
219.272	1602.2
219.734	1560.6
220.196	1521.7
220.659	1488.2
221.121	1577.3
221.584	1694.9
222.046	1830.1
222.508	1859.7
222.97	1841.2
223.432	1930
223.894	2073.3
224.356	2364.5
224.818	2543.3
225.28	2562.2
225.742	2681.3
226.204	3040.4
226.665	3254
227.127	3402.7
227.589	3477
228.05	3694.4
228.512	3889.4
228.973	4011.3
229.435	3826.7
229.896	3783.6
230.357	4220.3
230.818	5112.2
231.28	5704.6
231.741	5789.8
232.202	5361.5
232.663	4868.7
233.124	5094.6
233.585	6021
234.046	6869.2
234.507	6995.6
234.967	5873.5
235.428	4587.9
235.889	4057.5
236.349	4648.5
236.81	5588.6
237.271	5595
237.731	4566
238.191	3598.9
238.652	3316.4
239.112	4082.9
239.572	5603.7
240.033	6415.9
240.493	5576.4
240.953	4056.1
241.413	3587
241.873	4357.8
242.333	5437.5
242.793	5648.6
243.253	4789.2
243.712	3604.3
244.172	3231.1
244.632	3940.2
245.092	5085.8
245.551	5547.5
246.011	5034.5
246.47	4175.8
246.93	4041.4
247.389	5121.7
247.848	6877.9
248.308	8145.5
248.767	8252.3
249.226	7444.3
249.685	6599.3
250.144	6905.5
250.603	9083
251.062	11606.1
251.521	12513.9
251.98	11927.6
252.439	11116.3
252.897	10574.7
253.356	11655.5
253.815	13401.1
254.273	14054.2
254.732	13952.6
255.19	12647.4
255.649	11404.7
256.107	10948.6
256.566	11026.7
257.024	11821.7
257.482	12038.2
257.94	11874.1
258.398	12131.2
258.856	11886.4
259.315	11343.4
259.772	11099.9
260.23	10843.4
260.688	10170.3
261.146	9317.1
261.604	8704.4
262.062	8979.7
262.519	9944.3
262.977	10735
263.434	10552.9
263.892	10401.3
264.349	10706
264.807	11732.1
265.264	12506.4
265.721	12993.1
266.179	13145.5
266.636	12551.1
267.093	12113.4
267.55	12964.4
268.007	14592.2
268.464	15523.6
268.921	15634.2
269.378	14165.9
269.835	13308.3
270.291	13147.4
270.748	13203.4
271.205	13510.3
271.661	13291.9
272.118	12272.1
272.574	11697.3
273.031	11395.9
273.487	10993
273.944	10910
274.4	11194.5
274.856	11435.9
275.312	10908.2
275.768	10460
276.225	10538
276.681	10831.5
277.137	10904.6
277.593	10960.4
278.048	10858.4
278.504	10741.7
278.96	10668.4
279.416	10127.3
279.871	9776.1
280.327	9703.6
280.783	10300.9
281.238	10667.1
281.694	10237.4
282.149	9537.4
282.604	8924.2
283.06	8611.9
283.515	8474.4
283.97	8683.1
284.425	8680.2
284.88	8368.9
285.335	7636.3
285.79	6757
286.245	6109.1
286.7	6175.5
287.155	6662.5
287.61	6840.2
288.064	6930.5
288.519	7117.5
288.974	7042.8
289.428	6482.9
289.883	6382.3
290.337	6627.5
290.792	7077.3
291.246	7521
291.7	7809.9
292.155	7843.2
292.609	7895
293.063	7829.6
293.517	8206.3
293.971	8906.1
294.425	9405.4
294.879	9704.6
295.333	9509.3
295.787	9360.2
296.241	9365.4
296.694	9558.1
297.148	10065.9
297.602	10446.1
298.055	10623.2
298.509	10196.4
298.962	9516.5
299.416	9140.3
299.869	9051.9
300.322	9247.8
300.775	9235.2
301.229	9163.1
301.682	8935.3
302.135	8545.5
302.588	8172.6
303.041	7942
303.494	7826.8
303.947	7690.7
304.4	7474.1
304.852	7146.7
305.305	6879.7
305.758	6428.5
306.21	5906.3
306.663	5558.9
307.115	5380
307.568	5340.5
308.02	5216.2
308.473	4888.8
308.925	4585.2
309.377	4291.5
309.829	4129.6
310.282	4031.6
310.734	4073.3
311.186	4047.3
311.638	3877.9
312.09	3725.8
312.542	3669.2
312.993	3548.6
313.445	3418.5
313.897	3420.1
314.349	3312.6
314.8	3301.9
315.252	3170.7
315.703	3138.8
316.155	3006.9
316.606	2872.2
317.058	2784.1
317.509	2861.1
317.96	2832.9
318.411	2758.6
318.863	2808.6
319.314	2834
319.765	2788.8
320.216	2762.9
320.667	2620.9
321.117	2523.9
321.568	2612.1
322.019	2625.4
322.47	2620.5
322.921	2495.2
323.371	2345.8
323.822	2150.8
324.272	2021.7
324.723	1892.9
325.173	1772.5
325.623	1659
326.074	1590.9
326.524	1555.4
326.974	1756
327.424	2335
327.874	2645.1
328.325	2103.1
328.775	1486.9
329.224	1350.4
329.674	1277.7
330.124	1239.1
330.574	1186
331.024	1118.9
331.473	1037.5
331.923	972.2
332.373	868.1
332.822	829.3
333.272	756.3
333.721	731.7
334.17	687.6
334.62	675.3
335.069	617.3
335.518	575.2
335.967	566.3
336.416	511.5
336.865	475.6
337.314	473.1
337.763	404.3
338.212	390.7
338.661	388.4
339.11	343
339.558	313
340.007	335.1
340.456	341.4
340.904	333.9
341.353	297.7
341.801	278.1
342.25	284.7
342.698	259.6
343.146	242.7
343.595	198.7
344.043	217.9
344.491	190.9
344.939	178.8
345.387	165.7
345.835	154.7
346.283	150.4
346.731	137.6
347.179	123.9
347.626	124.5
348.074	128
348.522	108.3
348.969	91.5
349.417	49.6
349.865	115.4
350.312	97.9
350.759	96.6
351.207	73.1
351.654	56.1
352.101	51.6
352.548	73.7
352.996	56.9
353.443	79.1
353.89	62
354.337	59.3
354.784	48.7
355.231	64.3
355.677	48.6
356.124	38.6
356.571	51.3
357.018	43.6
357.464	54.1
357.911	64.7
358.357	34.8
358.804	34.9
359.25	72.6
359.696	31.1
360.143	24.5
360.589	33.6
361.035	21.6
361.481	44
361.927	26.1
362.373	38.9
362.819	52.6
363.265	13.7
363.711	13.1
364.157	23.7
364.603	10.8
365.048	35.1
365.494	25.7
365.94	40.4
366.385	43.8
366.831	24.1
367.276	14.8
367.722	29.2
368.167	11.5
368.612	1.3
369.057	20.7
369.503	10.2
369.948	4.2
370.393	32.5
370.838	10.5
371.283	44.8
371.728	34.8
372.173	-4.3
372.617	3.8
373.062	-10.4
373.507	12.5
373.951	15.6
374.396	29.6
374.841	9.1
375.285	22.2
375.729	4.4
376.174	-0.3
376.618	37
377.062	9.3
377.507	15.2
377.951	7.3
378.395	46.4
378.839	12.6
379.283	17.3
379.727	24.9
380.171	11.9
380.615	20.9
381.059	14.6
381.502	11.7
381.946	13.8
382.39	35.7
382.833	18
383.277	8.2
383.72	17.9
384.164	28.9
384.607	8
385.05	27.3
385.494	15
385.937	14.2
386.38	1.3
386.823	45.3
387.266	34.7
387.709	3.9
388.152	27.5
388.595	4.1
389.038	-3
389.481	10.3
389.923	11.8
390.366	17.9
390.809	10.6
391.251	13.2
391.694	40.4
392.136	15.1
392.579	2.7
393.021	-0.6
393.463	18.9
393.906	-10
394.348	12.4
394.79	6.6
395.232	19.4
395.674	19.4
396.116	11.2
396.558	34.2
397	19.9
397.442	42.1
397.884	35.9
398.325	16.3
398.767	33.6
399.209	17.6
399.65	13.7
400.092	24.4
400.533	26
400.974	11.1
401.416	15.8
401.857	11.8
402.298	32
402.74	25.4
403.181	9
403.622	25.7
404.063	31.8
404.504	12.2
404.945	24.4
405.386	12
405.826	22.6
406.267	16.6
406.708	20.1
407.149	26.2
407.589	17.6
408.03	-10.7
408.47	1.5
408.911	10.6
409.351	1.8
409.791	20.7
410.232	4.8
410.672	17.3
411.112	8.9
411.552	9
411.992	32
412.432	35.6
412.872	18.2
413.312	30.3
413.752	7.7
414.192	10.8
414.632	21.8
415.071	-4.2
415.511	22.6
415.951	6.4
416.39	11.9
416.83	24.2
417.269	19.8
417.708	-6.8
418.148	16.2
418.587	16.3
419.026	5.7
419.465	0.9
419.904	55
420.344	23.7
420.783	16.9
421.221	20.4
421.66	4.3
422.099	32.9
422.538	15.5
422.977	26.3
423.415	10.6
423.854	18
424.293	13.1
424.731	3.5
425.17	33.5
425.608	15
426.046	25.1
426.485	2.3
426.923	20.9
427.361	32.5
427.799	27
428.237	10.8
428.675	25.2
429.113	19.1
429.551	12.9
429.989	11.9
430.427	8.8
430.865	18.2
431.303	3.9
431.74	12.1
432.178	17.6
432.615	31.7
433.053	4.1
433.49	21.1
433.928	18.1
434.365	18.4
434.802	14.7
435.24	40.6
435.677	15.9
436.114	11.6
436.551	20.4
436.988	5.7
437.425	10.6
437.862	3.8
438.299	7.6
438.736	22.5
439.172	-1.6
439.609	15.8
440.046	5.8
440.482	30.6
440.919	38.1
441.355	10.4
441.792	27.1
442.228	-1.7
442.665	6.9
443.101	18.5
443.537	44.1
443.973	26.6
444.409	30.6
444.845	24.2
445.281	14.8
445.717	26.3
446.153	23.2
446.589	25.5
447.025	10.7
447.461	21.2
447.896	18.3
448.332	18.9
448.768	24.5
449.203	33.1
449.639	6.2
450.074	0.8
450.509	32.9
450.945	23.3
451.38	21.8
451.815	21.7
452.25	15.2
452.685	13.3
453.12	28.7
453.555	32.2
453.99	15.8
454.425	55
454.86	23.4
455.295	29
455.73	24
456.164	-12.5
456.599	25
457.033	18.9
457.468	25.2
457.902	25.5
458.337	25.7
458.771	30.9
459.205	43
459.64	30.1
460.074	30.3
460.508	35.1
460.942	17.3
461.376	7.6
461.81	28.4
462.244	34.5
462.678	5.9
463.112	26.2
463.545	6.6
463.979	12.3
464.413	18
464.846	19.3
465.28	17.6
465.713	11.8
466.147	39.8
466.58	37.5
467.014	7
467.447	19.7
467.88	10.2
468.313	32.6
468.746	42.2
469.179	19.7
469.612	7.5
470.045	30.6
470.478	32.6
470.911	24.8
471.344	12.2
471.777	32.2
472.209	27.2
472.642	27.9
473.074	19.4
473.507	45.8
473.939	37.6
474.372	34.5
474.804	16.7
475.236	18.3
475.669	31.4
476.101	33.6
476.533	58.3
476.965	13.6
477.397	27.2
477.829	22.4
478.261	12.5
478.693	32.7
479.125	32.3
479.557	34
479.988	24.3
480.42	39.9
480.852	19.2
481.283	25.2
481.715	21.7
482.146	31
482.577	31.6
483.009	5.8
483.44	29.5
483.871	32.1
484.302	18.2
484.734	29.6
485.165	33.6
485.596	14.4
486.027	43.9
486.457	39.9
486.888	35.4
487.319	32.6
487.75	30.8
488.181	53.6
488.611	22.5
489.042	24
489.472	25.7
489.903	43.5
490.333	26.8
490.764	13.1
491.194	42
491.624	30.7
492.054	27.3
492.484	20.9
492.915	21
493.345	25.6
493.775	20.8
494.204	20.4
494.634	32.9
495.064	18.3
495.494	33.8
495.924	15.1
496.353	33.6
496.783	25.6
497.212	22.1
497.642	7.8
498.071	32.4
498.501	25.5
498.93	13.4
499.359	24.9
499.789	20.6
500.218	39.3
500.647	35.2
501.076	37.8
501.505	30.7
501.934	21.7
502.363	39
502.792	40.6
503.221	42.8
503.649	26.5
504.078	29.3
504.507	43.6
504.935	14.3
505.364	25.9
505.792	40
506.221	33
506.649	6.4
507.077	11.9
507.506	46.3
507.934	51.2
508.362	-7
508.79	-2.7
509.218	14.7
509.646	5.6
510.074	15.1
510.502	15
510.93	13.5
511.357	24.4
511.785	16.7
512.213	-1.9
512.64	19.2
513.068	30
513.496	28.7
513.923	19.6
514.35	7.2
514.778	7.5
515.205	55.5
515.632	27.4
516.059	17.2
516.486	7.5
516.914	13.2
517.341	8
517.768	29.4
518.194	9
518.621	3.3
519.048	24.7
519.475	28.4
519.902	32.4
520.328	32.4
520.755	-1.6
521.181	20.6
521.608	15.5
522.034	14
522.461	-0.6
522.887	25.3
523.313	24.1
523.739	15.6
524.165	20.9
524.592	23.2
525.018	20.2
525.444	13.7
525.869	13.2
526.295	-12.6
526.721	-1.2
527.147	14.7
527.573	33.9
527.998	30.1
528.424	7.3
528.849	-5
529.275	14.9
529.7	13.8
530.126	22
530.551	19.2
530.976	16.7
531.402	34.8
531.827	9.1
532.252	27.6
532.677	7.4
533.102	19.3
533.527	27.7
533.952	10.1
534.377	6.5
534.801	24.8
535.226	13.3
535.651	19.1
536.076	19.4
536.5	12.9
536.925	15.9
537.349	-3.4
537.773	25.4
538.198	19.6
538.622	31.3
539.046	23.2
539.471	18.3
539.895	18.6
540.319	19.1
540.743	6.5
541.167	0
541.591	-4.4
542.015	9.9
542.438	17.6
542.862	35.9
543.286	5.1
543.71	11.6
544.133	19
544.557	11.4
544.98	-1.7
545.404	32.6
545.827	17.1
546.25	-2.5
546.674	8
547.097	29.4
547.52	-4.7
547.943	10.6
548.366	40.7
548.789	-0.6
549.212	8
549.635	19.1
550.058	40.5
550.481	32.8
550.903	48.9
551.326	35.2
551.749	13
552.171	12.1
552.594	34.6
553.016	18.7
553.438	24.6
553.861	22.7
554.283	24.5
554.705	16.9
555.128	13
555.55	-3
555.972	57.8
556.394	-1.6
556.816	32.5
557.238	45
557.659	14.8
558.081	-1.2
558.503	10.4
558.925	23.6
559.346	-14.2
559.768	20.8
560.189	36
560.611	21.9
561.032	33.8
561.454	35.6
561.875	15.6
562.296	16.5
562.718	2.5
563.139	35.4
563.56	10.6
563.981	26.4
564.402	33
564.823	24.6
565.244	36.5
565.664	32.7
566.085	21.5
566.506	37.8
566.927	15.7
567.347	52.8
567.768	36.8
568.188	25
568.609	18.2
569.029	15.7
569.449	7.9
569.87	50.3
570.29	26.8
570.71	16.1
571.13	26.8
571.55	22.5
571.97	40
572.39	26.6
572.81	34.6
573.23	5.1
573.65	47.9
574.069	25.3
574.489	31.9
574.909	35.3
575.328	48.7
575.748	34
576.167	8.2
576.587	10.5
577.006	35.1
577.425	10.6
577.844	33.9
578.264	-5.8
578.683	17
579.102	30.8
579.521	41.8
579.94	31.1
580.359	-16.5
580.778	8.8
581.196	11.8
581.615	33.7
582.034	29.3
582.452	-0.2
582.871	26.7
583.29	20.4
583.708	24
584.126	20.6
584.545	12.2
584.963	17.6
585.381	15.2
585.8	20
586.218	25.3
586.636	-6.8
587.054	34.5
587.472	20.6
587.89	1.6
588.308	5.7
588.725	39.5
589.143	26.8
589.561	30.8
589.979	22.8
590.396	32
590.814	22.4
591.231	-8.8
591.649	32.1
592.066	24
592.483	9.4
592.901	5.9
593.318	21.4
593.735	9.8
594.152	2.8
594.569	-5.7
594.986	21.4
595.403	26.6
595.82	22.5
596.237	28.7
596.654	22.8
597.07	22.4
597.487	15.2
597.904	19.2
598.32	18.8
598.737	-8.6
599.153	-6.5
599.57	6.4
599.986	1.8
600.402	17
600.818	-4.6
601.235	11.4
601.651	16.1
602.067	-2.7
602.483	6.5
602.899	23
603.315	29.4
603.73	29
604.146	19.4
604.562	27.2
604.978	35.4
605.393	24.3
605.809	8.4
606.224	-0.5
606.64	27.6
607.055	34.9
607.471	46.5
607.886	-5.4
608.301	-3.6
608.716	39.5
609.131	29
609.547	25.8
609.962	19.6
610.377	19.5
610.791	22.6
611.206	20.3
611.621	11.5
612.036	33.5
612.451	11.5
612.865	31
613.28	2.8
613.694	41.3
614.109	26.2
614.523	28
614.938	30.3
615.352	25.4
615.766	54.9
616.18	34.9
616.595	-1.2
617.009	30.1
617.423	40.3
617.837	19.4
618.251	7.3
618.664	16.1
619.078	8.7
619.492	42.5
619.906	32.6
620.319	49.8
620.733	28.9
621.146	21.4
621.56	61.9
621.973	20.6
622.387	57
622.8	46.2
623.213	28
623.627	19.9
624.04	41.7
624.453	40
624.866	30.4
625.279	57.3
625.692	73.5
626.105	54.6
626.518	47.6
626.93	52.5
627.343	54.5
627.756	50.7
628.168	33.5
628.581	83.7
628.993	73.1
629.406	55.8
629.818	51.5
630.231	52.9
630.643	59.4
631.055	91.8
631.467	67
631.879	74.7
632.291	79.4
632.703	98.9
633.115	96.8
633.527	115.7
633.939	104
634.351	96.2
634.763	121.1
635.174	147.9
635.586	155.8
635.997	151.4
636.409	166.3
636.82	183.8
637.232	156.4
637.643	177.8
638.054	147.6
638.466	158.4
638.877	217.6
639.288	198.7
639.699	172.4
640.11	180
640.521	183.1
640.932	169.9
641.343	181.5
641.753	197.9
642.164	186
642.575	205.3
642.986	220.5
643.396	199.8
643.807	188.4
644.217	207.8
644.627	199.5
645.038	197.2
645.448	196.7
645.858	200
646.269	204.3
646.679	213.4
647.089	190.2
647.499	186.2
647.909	200.9
648.319	172.8
648.728	167.3
649.138	152.4
649.548	157.4
649.958	162.9
650.367	150.3
650.777	134.2
651.186	149.5
651.596	185.6
652.005	148.1
652.415	132.1
652.824	125.6
653.233	128.3
653.642	117.9
654.052	128.4
654.461	113.1
654.87	114.6
655.279	92.3
655.688	104.7
656.096	85.8
656.505	102.7
656.914	108.5
657.323	104
657.731	88.6
658.14	147.2
658.548	119.2
658.957	104.5
659.365	97.6
659.774	123.5
660.182	103.8
660.59	119.8
660.998	119.3
661.407	96.8
661.815	100.6
662.223	119.4
662.631	82.9
663.039	107.3
663.446	121.1
663.854	127.4
664.262	119.2
664.67	97.7
665.077	102.3
665.485	104.6
665.892	77.3
666.3	82.3
666.707	89.7
667.115	79.1
667.522	79.6
667.929	101.8
668.337	66.3
668.744	62.7
669.151	56.6
669.558	74
669.965	95.6
670.372	59.3
670.779	61.9
671.185	48.3
671.592	41.8
671.999	42.6
672.405	50.1
672.812	52.5
673.219	37.3
673.625	23.8
674.032	21.4
674.438	37.3
674.844	28
675.25	47.3
675.657	11.3
676.063	16.1
676.469	17.2
676.875	37.9
677.281	26.3
677.687	10.6
678.093	21.2
678.499	12.8
678.904	29.5
679.31	4.3
679.716	20.7
680.121	-1.9
680.527	17.8
680.932	39.4
681.338	4.8
681.743	18.7
682.148	5.2
682.554	21.5
682.959	10.8
683.364	3.4
683.769	-10.1
684.174	2.1
684.579	20.9
684.984	8.4
685.389	14.3
685.794	17.3
686.199	27.4
686.603	8.2
687.008	27.5
687.413	16.3
687.817	10.1
688.222	-12.7
688.626	11
689.03	7.8
689.435	19.7
689.839	-7.2
690.243	17.6
690.647	18.9
691.051	21
691.456	-7
691.859	-10.8
692.263	7.2
692.667	-3.9
693.071	2.7
693.475	16.1
693.879	25.5
694.282	10.7
694.686	11.6
695.089	44.2
695.493	35
695.896	19
696.3	29.4
696.703	6.7
697.106	13.5
697.509	2.6
697.913	27.5
698.316	6.8
698.719	39
699.122	15.2
699.525	10.8
699.928	14.5
700.33	31.4
700.733	26.3
701.136	19
701.539	16
701.941	21.4
702.344	14.2
702.746	18.8
703.149	24.3
703.551	1.6
703.953	3
704.356	7.2
704.758	42.9
705.16	27.1
705.562	2.1
705.964	9.6
706.366	33.9
706.768	11.2
707.17	-4.3
707.572	19.8
707.973	33.1
708.375	14.4
708.777	8.2
709.178	7.4
709.58	30.7
709.981	25.8
710.383	25.8
710.784	13.6
711.186	34.9
711.587	3
711.988	12.7
712.389	21.6
712.79	20.3
713.191	17.1
713.592	43
713.993	2.3
714.394	11.9
714.795	22.7
715.196	-5.1
715.596	-1.1
715.997	9.9
716.398	-4
716.798	18.7
717.199	27.7
717.599	21.5
718	6.1
718.4	26.3
718.8	7.7
719.2	11.9
719.6	18.5
720.001	26.3
720.401	24.8
720.801	21.3
721.201	26.4
721.6	21.8
722	28.8
722.4	11.6
722.8	5.6
723.199	0
723.599	14.8
723.998	7.9
724.398	39.6
724.797	9.4
725.197	-4.9
725.596	-0.5
725.995	12.2
726.394	5.9
726.794	3
727.193	0.9
727.592	6.8
727.991	9.5
728.39	0.8
728.789	7.7
729.187	10
729.586	-0.6
729.985	10.2
730.383	12.8
730.782	-7.8
731.181	13.1
731.579	37.6
731.977	16.4
732.376	10.4
732.774	18.2
733.172	-2.3
733.571	5.3
733.969	15.6
734.367	-3.2
734.765	26
735.163	15.1
735.561	4
735.959	7.4
736.356	42.3
736.754	23.7
737.152	5.5
737.55	23
737.947	27.6
738.345	19.9
738.742	22.3
739.14	43.3
739.537	34.5
739.934	29.5
740.331	31.5
740.729	23.5
741.126	25.5
741.523	33.5
741.92	26.3
742.317	19.1
742.714	28.1
743.111	34.1
743.507	24.2
743.904	38
744.301	17.3
744.697	30.9
745.094	58.4
745.491	8.7
745.887	33.6
746.283	37.5
746.68	15.5
747.076	31.7
747.472	29.8
747.869	23.3
748.265	25.5
748.661	34.5
749.057	32.6
749.453	52.5
749.849	28.2
750.244	45
750.64	48.8
751.036	17.9
751.432	35.8
751.827	46.1
752.223	48
752.618	42.6
753.014	24.3
753.409	41.9
753.805	29.8
754.2	50.9
754.595	47.7
754.99	40.6
755.385	40.3
755.78	32.6
756.175	26
756.57	44.6
756.965	50.1
757.36	47.1
757.755	49
758.15	56.5
758.544	55.1
758.939	40.9
759.334	54.8
759.728	89.7
760.122	69.8
760.517	96.3
760.911	73.9
761.306	82.8
761.7	81.1
762.094	108.3
762.488	97.2
762.882	81.4
763.276	69.3
763.67	84
764.064	93.3
764.458	93.3
764.852	97
765.245	96.3
765.639	112.7
766.033	124.6
766.426	121.9
766.82	123.6
767.213	129.8
767.606	102.3
768	105.2
768.393	84.5
768.786	87.1
769.179	111.6
769.572	72.3
769.966	102.9
770.358	78.1
770.751	68.5
771.144	61.5
771.537	78.3
771.93	75.1
772.323	69.5
772.715	67.9
773.108	52.2
773.5	65.8
773.893	56.7
774.285	82.4
774.678	38.8
775.07	49.5
775.462	39.3
775.854	39.4
776.247	54.6
776.639	37.5
777.031	52.1
777.423	36.4
777.815	38
778.207	61.4
778.598	48.8
778.99	72.7
779.382	57.2
779.773	78.7
780.165	102.1
780.557	73.8
780.948	84.3
781.339	93.9
781.731	66.2
782.122	106.2
782.513	116.1
782.905	78
783.296	83.3
783.687	116.3
784.078	84.1
784.469	96.7
784.86	80.5
785.251	61.3
785.641	94
786.032	80
786.423	69.5
786.813	99.3
787.204	79.1
787.594	88.9
787.985	79.9
788.375	84.4
788.766	70.9
789.156	74.6
789.546	105.8
789.936	77.2
790.326	99.5
790.717	83.4
791.107	77.5
791.497	91.2
791.886	80.4
792.276	57.9
792.666	60.8
793.056	58.4
793.445	45.6
793.835	55.8
794.225	48.1
794.614	50.5
795.004	69.5
795.393	76.5
795.782	38.7
796.172	34.6
796.561	53
796.95	43.7
797.339	55.2
797.728	58
798.117	49.6
798.506	42.2
798.895	46.4
799.284	21.2
799.673	77.6
800.061	42.8
800.45	42.1
800.839	20.9
801.227	38
801.616	8.5
802.004	25
802.392	37
802.781	17.8
803.169	28.9
803.557	25.4
803.945	37.8
804.333	22.5
804.721	24.6
805.109	19.1
805.497	35.5
805.885	22.8
806.273	27.6
806.661	19.3
807.048	0.8
807.436	24.1
807.824	26.6
808.211	15.7
808.599	12.3
808.986	14.6
809.373	38
809.761	40.3
810.148	26.4
810.535	32
810.922	36.8
811.309	32.2
811.696	14.4
812.083	20.8
812.47	18
812.857	12.7
813.244	29.3
813.631	20
814.017	47.4
814.404	15.2
814.791	35.4
815.177	33
815.564	30.8
815.95	8.3
816.336	36.3
816.723	11.4
817.109	27.4
817.495	31.6
817.881	16.6
818.267	12.5
818.653	16.4
819.039	23.6
819.425	7.8
819.811	17
820.197	25
820.582	15.4
820.968	37.2
821.354	11.3
821.739	18.5
822.125	2.3
822.51	3.6
822.895	20.9
823.281	10.7
823.666	39.6
824.051	31.3
824.436	-12.7
824.822	9.6
825.207	31.3
825.592	0.2
825.976	8.9
826.361	5.9
826.746	24.3
827.131	16
827.516	33.4
827.9	7.5
828.285	21.8
828.669	16.8
829.054	13.3
829.438	12.5
829.823	9.4
830.207	15.4
830.591	22.1
830.975	39.5
831.36	29.7
831.744	13.2
832.128	30.4
832.512	8.6
832.895	34.1
833.279	21.1
833.663	33.8
834.047	5.5
834.431	21.7
834.814	32
835.198	17.7
835.581	21.4
835.965	8.6
836.348	16
836.731	11.8
837.115	12.2
837.498	2.5
837.881	33.2
838.264	25.1
838.647	-26.3
839.03	11.4
839.413	17.8
839.796	15.8
840.179	12.2
840.562	19
840.944	24
841.327	39.1
841.71	32
842.092	30.5
842.475	-1.6
842.857	22.9
843.24	23.4
843.622	16.4
844.004	20.8
844.386	25.2
844.769	25.5
845.151	1.3
845.533	31.5
845.915	19.6
846.297	20.7
846.678	49.6
847.06	2.2
847.442	22.9
847.824	24.2
848.205	21.8
848.587	19.3
848.968	21.8
849.35	34.4
849.731	35.1
850.113	7.5
850.494	5.6
850.875	19.7
851.256	20.2
851.638	20.2
852.019	-7
852.4	9.6
852.781	39.8
853.161	15.5
853.542	26
853.923	31.4
854.304	14.1
854.685	7.7
855.065	5.2
855.446	17
855.826	-7.5
856.207	4.3
856.587	28.5
856.967	16.5
857.348	14.7
857.728	5.1
858.108	5.5
858.488	6.1
858.868	8.6
859.248	-18.4
859.628	17.7
860.008	24.8
860.388	-6.9
860.768	9.2
861.147	4.3
861.527	13.6
861.907	24.7
862.286	15.1
862.666	32.3
863.045	5.9
863.424	32.2
863.804	9.4
864.183	4.2
864.562	19.8
864.941	14.8
865.32	31.5
865.699	34.3
866.078	15.1
866.457	23.6
866.836	14.9
867.215	20.1
867.594	9.3
867.972	-9
868.351	23.1
868.729	31.2
869.108	8.2
869.486	15.7
869.865	21.4
870.243	12.6
870.621	1.3
871	3.8
871.378	24.7
871.756	27.3
872.134	29.2
872.512	20.6
872.89	3.9
873.268	16.1
873.646	29.7
874.023	14.7
874.401	1.1
874.779	16.2
875.156	3.6
875.534	4.4
875.911	4.5
876.289	36.6
876.666	4.8
877.043	29.2
877.421	18.2
877.798	45.5
878.175	18.5
878.552	14.9
878.929	16.6
879.306	23.1
879.683	28.3
880.06	25
880.437	22.2
880.813	5.6
881.19	13.7
881.567	12.4
881.943	-9.9
882.32	9.3
882.696	15.4
883.073	33
883.449	21.5
883.825	23.4
884.202	19.4
884.578	33.6
884.954	11.4
885.33	3.9
885.706	21.9
886.082	26.8
886.458	11.6
886.834	22.8
887.209	-1.2
887.585	-5.8
887.961	8.1
888.336	14
888.712	25.6
889.087	25.6
889.463	-10.7
889.838	20.7
890.213	19.9
890.589	6
890.964	27.3
891.339	16.7
891.714	13
892.089	15.4
892.464	24.2
892.839	26.3
893.214	10.5
893.589	10.2
893.963	24.2
894.338	8
894.713	16.1
895.087	42
895.462	22
895.836	21.6
896.211	18
896.585	2.5
896.959	4.5
897.334	26
897.708	1.5
898.082	6.4
898.456	22.9
898.83	4.9
899.204	3.7
899.578	0.2
899.952	33.6
900.325	31.2
900.699	7.2
901.073	12.4
901.446	30.9
901.82	17.3
902.193	18.7
902.567	20.1
902.94	22.6
903.313	15.7
903.687	19.5
904.06	9
904.433	5.4
904.806	35
905.179	9
905.552	-4.5
905.925	16.2
906.298	11.1
906.671	17.4
907.043	12.8
907.416	19.3
907.789	28
908.161	21.4
908.534	23.4
908.906	34.5
909.279	5
909.651	44.3
910.023	5.5
910.396	31.6
910.768	25.2
911.14	24.6
911.512	19.7
911.884	10.9
912.256	13.1
912.628	17.2
912.999	39
913.371	8.7
913.743	26
914.115	21.8
914.486	22.8
914.858	19.2
915.229	12.3
915.601	26.7
915.972	23.9
916.343	10.7
916.715	41.4
917.086	20.1
917.457	45.9
917.828	26.9
918.199	24
918.57	23.3
918.941	1.3
919.312	38.9
919.682	21.7
920.053	11.6
920.424	3.6
920.794	38.8
921.165	10.7
921.536	25.6
921.906	34.3
922.276	9.7
922.647	27
923.017	20.7
923.387	13.1
923.757	30.1
924.127	27.5
924.497	24.4
924.867	35.4
925.237	28.4
925.607	-3.1
925.977	33.8
926.347	33.7
926.716	41.9
927.086	-7.6
927.456	25.3
927.825	29.3
928.195	22.4
928.564	35.5
928.933	27.7
929.303	10.3
929.672	32.1
930.041	15.9
930.41	32.6
930.779	16.5
931.148	24.2
931.517	8.4
931.886	-0.9
932.255	28.7
932.624	31.9
932.993	33.1
933.361	37.6
933.73	39.2
934.098	29
934.467	12.9
934.835	14.4
935.204	29.6
935.572	30.7
935.94	16.8
936.308	21.1
936.677	12.6
937.045	18.3
937.413	26.1
937.781	43.1
938.149	28.6
938.516	32.5
938.884	10.7
939.252	4.1
939.62	18.1
939.987	34.5
940.355	38.1
940.722	34.1
941.09	29.9
941.457	15.4
941.825	42.8
942.192	22.2
942.559	15.3
942.926	21
943.293	39.5
943.66	24.3
944.027	10.3
944.394	22
944.761	29.7
945.128	17.2
945.495	17.3
945.861	36.8
946.228	32.6
946.595	33.4
946.961	20.2
947.328	16.9
947.694	29.9
948.06	-13.4
948.427	24.4
948.793	44.7
949.159	25.9
949.525	37.9
949.891	-9.2
950.257	39.9
950.623	18.5
950.989	15.8
951.355	43.2
951.721	24
952.087	13.2
952.452	33.3
952.818	29.6
953.183	15.9
953.549	15.3
953.914	47.2
954.28	29.9
954.645	27.3
955.01	25.3
955.375	8
955.741	11.9
956.106	32.3
956.471	57.9
956.836	18.9
957.201	26.5
957.566	38.9
957.93	26.2
958.295	20.5
958.66	1.5
959.024	-5.6
959.389	6.7
959.753	1.5
960.118	24.7
960.482	25.1
960.847	25.7
961.211	32.3
961.575	-2.1
961.939	19.9
962.303	24.9
962.667	32.8
963.031	8.5
963.395	6.9
963.759	40.9
964.123	8.5
964.487	6
964.851	8.7
965.214	29.3
965.578	35.8
965.941	4.2
966.305	10.9
966.668	0.6
967.032	13.8
967.395	7
967.758	36.5
968.121	22.4
968.484	38.6
968.847	21.9
969.21	37.9
969.573	19.1
969.936	15.3
970.299	23.9
970.662	30.4
971.025	19.1
971.387	23
971.75	25.8
972.112	4.5
972.475	9
972.837	44.2
973.2	16.8
973.562	18.6
973.924	17.1
974.286	27.2
974.649	22.1
975.011	29
975.373	-4.3
975.735	45.1
976.097	23.1
976.458	13.4
976.82	3.1
977.182	15.8
977.544	5.8
977.905	23.1
978.267	12.4
978.628	3.5
978.99	15.9
979.351	14.8
979.712	19.9
980.074	2.6
980.435	29.6
980.796	-3.1
981.157	-3.3
981.518	6.8
981.879	12.9
982.24	10
982.601	15.4
982.962	-15.6
983.323	19.5
983.683	24.8
984.044	19
984.404	-13.8
984.765	17.6
985.125	9.6
985.486	12.9
985.846	28.4
986.206	21.6
986.567	33.1
986.927	35.8
987.287	25.2
987.647	15
988.007	41.8
988.367	16.3
988.727	7.7
989.087	14.9
989.446	37.6
989.806	23.4
990.166	13.3
990.525	14.8
990.885	20.4
991.244	-4
991.604	13.2
991.963	-0.8
992.322	31.3
992.682	9.6
993.041	2.7
993.4	9.3
993.759	17.7
994.118	1.6
994.477	31.9
994.836	24
995.195	25.9
995.553	6
995.912	17.6
996.271	20.8
996.629	22
996.988	8.1
997.346	29.2
997.705	17.6
998.063	8.5
998.422	14.7
998.78	9.2
999.138	17.9
999.496	16.6
999.854	20.2
1000.212	27.6
1000.57	24.5
1000.928	29.7
1001.286	22.2
1001.644	22.1
1002.001	16.6
1002.359	16.1
1002.717	12.3
1003.074	28.9
1003.432	31.2
1003.789	16.3
1004.147	15.7
1004.504	-2.9
1004.861	22.7
1005.218	35
1005.576	18.2
1005.933	20.7
1006.29	29.6
1006.647	-3.1
1007.004	-4.6
1007.36	5.9
1007.717	20.9
1008.074	-4.8
1008.431	12.8
1008.787	22.3
1009.144	1
1009.5	31.5
1009.857	16.9
1010.213	-3.5
1010.569	37.8
1010.926	30.7
1011.282	2.8
1011.638	26.8
1011.994	12.7
1012.35	10.8
1012.706	-0.6
1013.062	4.4
1013.418	13.2
1013.774	-2.4
1014.13	-12.6
1014.485	13.3
1014.841	20.2
1015.197	-0.2
1015.552	2.6
1015.907	4.3
1016.263	-3
1016.618	34.1
1016.974	4
1017.329	2.2
1017.684	19.5
1018.039	4.9
1018.394	13.2
1018.749	22.8
1019.104	17.5
1019.459	29.8
1019.814	29.3
1020.168	3.9
1020.523	12.3
1020.878	8.5
1021.232	26.3
1021.587	28.7
1021.941	43.8
1022.296	-4.9
1022.65	-3.8
1023.004	-5.4
1023.359	10.9
1023.713	22.5
1024.067	-10.2
1024.421	-5.3
1024.775	26.9
1025.129	-8.7
1025.483	15.8
1025.837	-20.1
1026.19	21.1
1026.544	27.1
1026.898	5.6
1027.251	5.3
1027.605	0.7
1027.958	32.7
1028.312	11.4
1028.665	-6.8
1029.018	5.5
1029.372	-7.2
1029.725	5
1030.078	0
1030.431	2.2
1030.784	-16.9
1031.137	20.9
1031.49	16.3
1031.843	11.1
1032.195	4
1032.548	3
1032.901	2.1
1033.253	3.8
1033.606	1.3
1033.958	-7.1
1034.311	7.6
1034.663	19.4
1035.016	-19.3
1035.368	11
1035.72	19.2
1036.072	4.6
1036.424	8.7
1036.776	-12.4
1037.128	14
1037.48	-13.3
