Data from 1.6bar_Subt2__0__17-10-14-051.txt Node

Date: Thu Jan 06 17:10:14 CET 2022
User: fsatto
Spectrometer: OFX01956
Trigger mode: 0
Integration Time (sec): 6.000000E-3
Scans to average: 10
Nonlinearity correction enabled: false
Boxcar width: 0
Storing dark spectrum: false
XAxis mode: Wavelengths
Number of Pixels in Spectrum: 2136
>>>>>Begin Spectral Data<<<<<
158.236	17.1
158.705	9.2
159.174	0.2
159.643	17.4
160.112	25.4
160.582	28.8
161.051	14.5
161.52	23.5
161.988	16.5
162.457	23.2
162.926	11.4
163.395	36.8
163.864	14.3
164.332	2
164.801	8.4
165.269	16.5
165.738	24.2
166.206	0.1
166.675	31.5
167.143	10.8
167.612	12.6
168.08	17.3
168.548	9.9
169.016	27
169.484	21.9
169.952	38.3
170.42	16
170.888	29.3
171.356	8.6
171.824	12.4
172.292	17.4
172.759	18.1
173.227	-1.1
173.695	20.4
174.162	29.6
174.63	33.2
175.097	18.1
175.565	23.3
176.032	22.3
176.499	13
176.967	22.2
177.434	12.1
177.901	19.4
178.368	27.1
178.835	18.5
179.302	48.4
179.769	29.1
180.236	4.6
180.703	21
181.17	27.8
181.637	17.6
182.103	13.7
182.57	13.1
183.036	11.9
183.503	27.1
183.97	5.2
184.436	13.8
184.902	9.5
185.369	23.7
185.835	15.3
186.301	25.1
186.767	11.8
187.234	20.3
187.7	27.3
188.166	17.1
188.632	15.2
189.098	29.8
189.563	19.8
190.029	5.9
190.495	15.1
190.961	25.4
191.426	23.7
191.892	23.4
192.358	-2.7
192.823	8.2
193.289	5.5
193.754	17.7
194.219	6.6
194.685	23.5
195.15	10.6
195.615	19.5
196.08	13.4
196.545	14.2
197.01	-4.2
197.475	16.2
197.94	16.3
198.405	16.5
198.87	-1.8
199.335	28.9
199.8	3.3
200.264	64.8
200.729	66.1
201.193	60.1
201.658	71.7
202.122	58.8
202.587	58.1
203.051	94.6
203.516	117.5
203.98	108.4
204.444	103.5
204.908	104.8
205.372	152
205.836	165.5
206.3	137.4
206.764	143.6
207.228	126.2
207.692	100.8
208.156	139.6
208.62	121.7
209.083	132.4
209.547	123.6
210.011	126.2
210.474	113.8
210.938	116.6
211.401	100.3
211.864	89.1
212.328	101.5
212.791	91.8
213.254	104.1
213.717	76.3
214.181	138.7
214.644	169.1
215.107	187.6
215.57	201
216.033	259.9
216.495	347.5
216.958	424.4
217.421	527.2
217.884	571.7
218.346	646.2
218.809	746.8
219.272	817
219.734	924.3
220.196	1023.9
220.659	1077.3
221.121	1140.9
221.584	1212.2
222.046	1324.1
222.508	1459.1
222.97	1558.7
223.432	1569.9
223.894	1664.6
224.356	1813.7
224.818	1909.4
225.28	1976
225.742	2054
226.204	2231.3
226.665	2399.5
227.127	2518.8
227.589	2627.2
228.05	2601.7
228.512	2639.2
228.973	2647.2
229.435	2511.3
229.896	2541.9
230.357	2752.4
230.818	2986
231.28	3063
231.741	3121.8
232.202	3159.8
232.663	3184.3
233.124	3257
233.585	3385.9
234.046	3456.1
234.507	3621
234.967	3600.8
235.428	3492.7
235.889	3481.4
236.349	3545.9
236.81	3587.9
237.271	3397.8
237.731	3125
238.191	2981.6
238.652	2969.5
239.112	3186.5
239.572	3594.7
240.033	3850.9
240.493	3706.3
240.953	3387.7
241.413	3434.7
241.873	3870.4
242.333	4284.3
242.793	4297.1
243.253	3937.7
243.712	3659.9
244.172	3744.9
244.632	4086.5
245.092	4348.9
245.551	4122.8
246.011	3454.6
246.47	2807.9
246.93	2695.6
247.389	3063.8
247.848	3469
248.308	3550.7
248.767	3310.6
249.226	2846.8
249.685	2868.6
250.144	3576.4
250.603	4829.5
251.062	5715.3
251.521	5480.3
251.98	4657.1
252.439	4102.8
252.897	4351.2
253.356	5685
253.815	6993.8
254.273	7015.2
254.732	6266.7
255.19	5119.8
255.649	4599.8
256.107	5011.5
256.566	5748
257.024	6203.2
257.482	5707.9
257.94	4608.4
258.398	4103
258.856	4152.2
259.315	4601.5
259.772	5009
260.23	4865.8
260.688	4256.3
261.146	3511
261.604	3214.5
262.062	3569.1
262.519	4364.3
262.977	4649.8
263.434	4242.5
263.892	3793.2
264.349	3751.3
264.807	4307.2
265.264	5023.1
265.721	5450.4
266.179	5399.7
266.636	4739.2
267.093	4341.5
267.55	4623.7
268.007	5556.7
268.464	6290.5
268.921	6351.4
269.378	5589.1
269.835	4905.9
270.291	4667.6
270.748	4754.8
271.205	5249.1
271.661	5406.2
272.118	5076.4
272.574	4741.8
273.031	4371.5
273.487	4048
273.944	4141.7
274.4	4457.8
274.856	4633
275.312	4411.3
275.768	4118.8
276.225	3976
276.681	4053.5
277.137	4202.7
277.593	4291.4
278.048	4290.9
278.504	4203.3
278.96	3979.5
279.416	3643.7
279.871	3458.3
280.327	3532.8
280.783	3785.4
281.238	4022.1
281.694	3817
282.149	3462.8
282.604	3226.6
283.06	3055.6
283.515	3039.6
283.97	3192.3
284.425	3282.4
284.88	3217.1
285.335	2945.2
285.79	2566.8
286.245	2279.7
286.7	2356.7
287.155	2695
287.61	2910.3
288.064	3030.8
288.519	3167.2
288.974	3131.3
289.428	2821.7
289.883	2809
290.337	3022
290.792	3324.2
291.246	3604.6
291.7	3780.9
292.155	3772.3
292.609	3643.2
293.063	3541
293.517	3695.5
293.971	4107.6
294.425	4450
294.879	4646.8
295.333	4515.3
295.787	4410.5
296.241	4327.2
296.694	4310.1
297.148	4584.8
297.602	4884.5
298.055	5019.7
298.509	4847.1
298.962	4455.7
299.416	4176.6
299.869	4101.3
300.322	4117.8
300.775	4153.2
301.229	4151
301.682	4070.6
302.135	3820.7
302.588	3566.7
303.041	3429
303.494	3383.1
303.947	3301.6
304.4	3131.1
304.852	3047.3
305.305	2869.5
305.758	2628.7
306.21	2411.6
306.663	2236.9
307.115	2119
307.568	2088.2
308.02	2054.9
308.473	1990.9
308.925	1846.4
309.377	1740.8
309.829	1668.1
310.282	1561.1
310.734	1586.1
311.186	1556.9
311.638	1511.2
312.09	1434.5
312.542	1364.3
312.993	1334.9
313.445	1252.4
313.897	1273.1
314.349	1225.9
314.8	1219.7
315.252	1166.9
315.703	1120.7
316.155	1092.2
316.606	1042.1
317.058	1017.4
317.509	1050.1
317.96	1025.2
318.411	986.7
318.863	1008.5
319.314	998.5
319.765	980.4
320.216	987.8
320.667	916.6
321.117	914.7
321.568	942.3
322.019	977.9
322.47	965.9
322.921	929.5
323.371	861.1
323.822	783.9
324.272	748.7
324.723	727.3
325.173	693.9
325.623	668.3
326.074	634
326.524	619.5
326.974	711.2
327.424	942.1
327.874	1101.5
328.325	908.1
328.775	667.3
329.224	599.8
329.674	601.9
330.124	584.2
330.574	566.8
331.024	534.2
331.473	494.9
331.923	492.2
332.373	434.5
332.822	409.2
333.272	387.7
333.721	379.7
334.17	365.3
334.62	379.7
335.069	352.7
335.518	308.2
335.967	324.2
336.416	280.1
336.865	267.3
337.314	271.5
337.763	248.3
338.212	228
338.661	248.1
339.11	216.6
339.558	198.9
340.007	211.5
340.456	212.8
340.904	216.5
341.353	203.3
341.801	178.8
342.25	176.4
342.698	160.5
343.146	175.5
343.595	122.8
344.043	163.3
344.491	132.9
344.939	120.8
345.387	126.2
345.835	106.4
346.283	109
346.731	99.6
347.179	61.4
347.626	89.1
348.074	86
348.522	76.5
348.969	70.2
349.417	28.8
349.865	88.4
350.312	84.1
350.759	72
351.207	55.1
351.654	48.1
352.101	36.8
352.548	58
352.996	40.3
353.443	66
353.89	45.3
354.337	37.1
354.784	27.5
355.231	57.1
355.677	43.2
356.124	24.1
356.571	38.1
357.018	30.1
357.464	33.3
357.911	53.6
358.357	18.6
358.804	23
359.25	49.3
359.696	22.6
360.143	15.7
360.589	13.6
361.035	18.5
361.481	41
361.927	23.9
362.373	28.6
362.819	47.1
363.265	14.5
363.711	12.3
364.157	18.6
364.603	5.5
365.048	27.5
365.494	25
365.94	36.2
366.385	45.5
366.831	20.8
367.276	3.5
367.722	27.9
368.167	18.2
368.612	10.7
369.057	20.1
369.503	12
369.948	10.7
370.393	35.1
370.838	14.6
371.283	38.8
371.728	31.9
372.173	-4.5
372.617	-1.9
373.062	-7.6
373.507	7.2
373.951	15.8
374.396	27.1
374.841	6.9
375.285	16.7
375.729	8.8
376.174	1.4
376.618	29.7
377.062	13.9
377.507	18.8
377.951	8.8
378.395	40.9
378.839	13.4
379.283	24.5
379.727	21.7
380.171	17.2
380.615	20.3
381.059	13.3
381.502	11.1
381.946	11.1
382.39	30.4
382.833	15.6
383.277	8.1
383.72	34.6
384.164	31.8
384.607	6.7
385.05	20.5
385.494	12.5
385.937	12.4
386.38	5.8
386.823	47.5
387.266	37.5
387.709	8.6
388.152	28.7
388.595	-2.8
389.038	-3.1
389.481	13.1
389.923	14.2
390.366	18.4
390.809	17.4
391.251	15.7
391.694	25
392.136	19.9
392.579	-5.1
393.021	-4.2
393.463	13.9
393.906	-11.8
394.348	12
394.79	11.9
395.232	11.7
395.674	24.8
396.116	8.6
396.558	34.7
397	16.8
397.442	29.4
397.884	27.7
398.325	11.9
398.767	27.6
399.209	6.8
399.65	14.4
400.092	25
400.533	21.8
400.974	12.6
401.416	7.9
401.857	7
402.298	35.1
402.74	18.9
403.181	12.4
403.622	22.5
404.063	29.6
404.504	18.5
404.945	22.4
405.386	17.1
405.826	22.2
406.267	7.3
406.708	16.4
407.149	17
407.589	20.1
408.03	-11.1
408.47	3.6
408.911	15.8
409.351	1.4
409.791	13.8
410.232	0.9
410.672	2.8
411.112	12.7
411.552	9.5
411.992	27.2
412.432	31.2
412.872	17.2
413.312	26
413.752	2.5
414.192	15.5
414.632	29.1
415.071	7.8
415.511	17.9
415.951	6.4
416.39	20.6
416.83	32.1
417.269	21.5
417.708	6
418.148	17.9
418.587	15.3
419.026	8.4
419.465	4.6
419.904	46
420.344	32.6
420.783	14
421.221	22.1
421.66	0.2
422.099	21.8
422.538	25.6
422.977	18
423.415	8.9
423.854	18.8
424.293	16.8
424.731	3.6
425.17	33.5
425.608	4.7
426.046	34.3
426.485	5.9
426.923	18.8
427.361	27.3
427.799	21.4
428.237	10.9
428.675	21.9
429.113	15.4
429.551	16.8
429.989	8.2
430.427	5
430.865	10.9
431.303	14.2
431.74	15.2
432.178	18.6
432.615	29.4
433.053	3.2
433.49	30.2
433.928	14.1
434.365	15.3
434.802	16.2
435.24	34.5
435.677	11.8
436.114	5.6
436.551	18.1
436.988	3.5
437.425	11.8
437.862	2.9
438.299	11.8
438.736	27.1
439.172	6.1
439.609	12.7
440.046	8.6
440.482	27.5
440.919	28.7
441.355	6.2
441.792	18.6
442.228	3.3
442.665	14.8
443.101	8.7
443.537	50.1
443.973	23.9
444.409	31.9
444.845	27.4
445.281	16.2
445.717	26.2
446.153	15.4
446.589	22.7
447.025	25.6
447.461	12.9
447.896	14
448.332	25.9
448.768	19
449.203	37.6
449.639	12.5
450.074	-1.1
450.509	33.8
450.945	28.1
451.38	23.6
451.815	19.6
452.25	11.5
452.685	12.7
453.12	34.2
453.555	28.9
453.99	15.8
454.425	43.8
454.86	20.3
455.295	14.9
455.73	15.9
456.164	-7.8
456.599	29.2
457.033	19.1
457.468	28.7
457.902	22.4
458.337	28.1
458.771	25.2
459.205	38.1
459.64	29.7
460.074	35.3
460.508	29.3
460.942	22.4
461.376	20.2
461.81	34.5
462.244	31.8
462.678	9.7
463.112	21.9
463.545	15.9
463.979	14.8
464.413	15.7
464.846	10.8
465.28	20.7
465.713	21.6
466.147	42.4
466.58	33.6
467.014	4.3
467.447	22.4
467.88	6.8
468.313	30.7
468.746	34.2
469.179	19.6
469.612	6.7
470.045	39.1
470.478	28.9
470.911	22.2
471.344	17.8
471.777	23.8
472.209	26.1
472.642	26.7
473.074	23.2
473.507	51.3
473.939	41.7
474.372	32.6
474.804	12.9
475.236	16.5
475.669	37.9
476.101	38.5
476.533	57.6
476.965	17.9
477.397	18.3
477.829	20.3
478.261	20.9
478.693	23.4
479.125	30.1
479.557	22.1
479.988	29.3
480.42	38.7
480.852	23.4
481.283	40.2
481.715	23.3
482.146	29.5
482.577	35
483.009	9.7
483.44	24.1
483.871	31.1
484.302	21.2
484.734	24.4
485.165	36.9
485.596	15.3
486.027	44.9
486.457	42.3
486.888	27.9
487.319	24.8
487.75	31.2
488.181	54.5
488.611	20.3
489.042	19.3
489.472	26.6
489.903	41.2
490.333	17.2
490.764	4.6
491.194	38.2
491.624	30.2
492.054	24.2
492.484	9.8
492.915	24.4
493.345	21.1
493.775	19.3
494.204	16.4
494.634	27.8
495.064	16.5
495.494	41.8
495.924	14.3
496.353	36.1
496.783	29.6
497.212	33.1
497.642	3.5
498.071	46.3
498.501	28.5
498.93	18.2
499.359	17.7
499.789	24.6
500.218	36.9
500.647	37.3
501.076	39.6
501.505	26.8
501.934	14.9
502.363	38.1
502.792	42.4
503.221	43.1
503.649	32.7
504.078	29.7
504.507	42.3
504.935	13.1
505.364	19.2
505.792	32.4
506.221	24.8
506.649	10.6
507.077	17.7
507.506	44.7
507.934	54.6
508.362	-19.6
508.79	7.4
509.218	9
509.646	7.3
510.074	17.9
510.502	8.2
510.93	18.9
511.357	15.1
511.785	14.2
512.213	-1.7
512.64	23.1
513.068	28.4
513.496	16.6
513.923	18.3
514.35	7.9
514.778	18.3
515.205	48.7
515.632	22.2
516.059	22.5
516.486	5.3
516.914	13.1
517.341	13.9
517.768	27.4
518.194	7.8
518.621	12.1
519.048	22.6
519.475	37.7
519.902	28.3
520.328	31
520.755	11.1
521.181	15.8
521.608	16.4
522.034	18.6
522.461	3.5
522.887	35.2
523.313	30.9
523.739	11.3
524.165	24.4
524.592	27.1
525.018	24.8
525.444	20
525.869	15.6
526.295	-2.1
526.721	-0.1
527.147	10.3
527.573	16.5
527.998	36.5
528.424	1.9
528.849	0.5
529.275	9.1
529.7	12.8
530.126	32.2
530.551	13.7
530.976	18.8
531.402	38.8
531.827	11.4
532.252	26.6
532.677	5.5
533.102	27.4
533.527	29.7
533.952	2.1
534.377	12.2
534.801	28.1
535.226	15.8
535.651	30.7
536.076	19.5
536.5	11.2
536.925	31.5
537.349	2.3
537.773	31.8
538.198	16.6
538.622	40.2
539.046	29.1
539.471	20
539.895	37.1
540.319	22.2
540.743	13.9
541.167	6.7
541.591	-3.4
542.015	12.2
542.438	23.2
542.862	46.4
543.286	18.9
543.71	16.3
544.133	19.3
544.557	14.4
544.98	-4.2
545.404	30.1
545.827	18.3
546.25	-2.2
546.674	7
547.097	40.1
547.52	1.9
547.943	27.1
548.366	38.8
548.789	-0.9
549.212	7
549.635	30.7
550.058	40.6
550.481	41.5
550.903	49.8
551.326	33.5
551.749	22.2
552.171	13
552.594	36.6
553.016	29.3
553.438	28.9
553.861	21.9
554.283	21.2
554.705	23.1
555.128	20.3
555.55	3.5
555.972	57.2
556.394	6.8
556.816	31.3
557.238	40.5
557.659	19.7
558.081	-4.6
558.503	28.1
558.925	20.9
559.346	-5.2
559.768	19.7
560.189	41.8
560.611	12.7
561.032	30.9
561.454	27.5
561.875	19
562.296	16.3
562.718	9.7
563.139	45.5
563.56	12.8
563.981	41.2
564.402	23.3
564.823	17.3
565.244	34.9
565.664	34.2
566.085	26.6
566.506	27.6
566.927	20.8
567.347	50.4
567.768	27
568.188	28.2
568.609	20.1
569.029	21.4
569.449	12.3
569.87	53.3
570.29	24.5
570.71	11.7
571.13	28
571.55	28.8
571.97	43.2
572.39	18.6
572.81	42
573.23	5.4
573.65	48.8
574.069	37.2
574.489	33.1
574.909	31.5
575.328	49
575.748	38.5
576.167	12.8
576.587	14.4
577.006	36.6
577.425	7.3
577.844	31.1
578.264	-11
578.683	17.5
579.102	39.8
579.521	36.6
579.94	28.1
580.359	-5
580.778	19.9
581.196	9.3
581.615	42.3
582.034	39.4
582.452	3.1
582.871	29.4
583.29	21.4
583.708	19.3
584.126	30.5
584.545	17.7
584.963	20.4
585.381	9.1
585.8	18.9
586.218	29.5
586.636	-6.8
587.054	39.5
587.472	23.3
587.89	-2.2
588.308	16.9
588.725	42.3
589.143	44.3
589.561	37.4
589.979	17.4
590.396	41.4
590.814	19.1
591.231	-17.7
591.649	28.7
592.066	13.7
592.483	8.2
592.901	9.2
593.318	22.8
593.735	12.9
594.152	-8.2
594.569	-0.5
594.986	25.2
595.403	27
595.82	25.1
596.237	27.8
596.654	32.2
597.07	24.2
597.487	20.4
597.904	20
598.32	23.4
598.737	-16
599.153	-7.5
599.57	6
599.986	5.2
600.402	23.5
600.818	5.4
601.235	7.2
601.651	15.2
602.067	-2.4
602.483	2
602.899	24.2
603.315	30.8
603.73	32.2
604.146	22.2
604.562	35.4
604.978	47.9
605.393	16.6
605.809	21.1
606.224	11.6
606.64	30.6
607.055	32.3
607.471	46.2
607.886	2.7
608.301	-4.2
608.716	32.8
609.131	35.5
609.547	28
609.962	15.5
610.377	29.8
610.791	27.3
611.206	32.8
611.621	17
612.036	33.8
612.451	25.1
612.865	29.6
613.28	9
613.694	40.6
614.109	28.7
614.523	39.8
614.938	34.4
615.352	22.2
615.766	54.1
616.18	32.1
616.595	6
617.009	28.5
617.423	50
617.837	22.8
618.251	10.3
618.664	27.9
619.078	20.7
619.492	41.9
619.906	36.7
620.319	54.6
620.733	42.5
621.146	16
621.56	64.5
621.973	25
622.387	55.9
622.8	46.6
623.213	35.8
623.627	25
624.04	50.6
624.453	30.4
624.866	40.2
625.279	65.2
625.692	68
626.105	64.4
626.518	43.4
626.93	58
627.343	48.7
627.756	47.5
628.168	37.3
628.581	84.1
628.993	70.5
629.406	59.6
629.818	56.9
630.231	51.4
630.643	68
631.055	92.6
631.467	66.2
631.879	79.2
632.291	72.5
632.703	96.6
633.115	98.1
633.527	118.7
633.939	118.2
634.351	110.6
634.763	140.7
635.174	149.4
635.586	150
635.997	147.7
636.409	180.1
636.82	195.7
637.232	168.8
637.643	190.2
638.054	170.4
638.466	177.9
638.877	239.8
639.288	215.4
639.699	182.7
640.11	206.6
640.521	208.7
640.932	194
641.343	201.1
641.753	201.1
642.164	211.2
642.575	229.4
642.986	229.4
643.396	215.5
643.807	220.2
644.217	219.4
644.627	222.9
645.038	216.3
645.448	209.9
645.858	208.6
646.269	206.9
646.679	225.1
647.089	200
647.499	190.3
647.909	191.2
648.319	166.8
648.728	174
649.138	148.6
649.548	161.8
649.958	147.1
650.367	149.9
650.777	129.6
651.186	140.7
651.596	160.3
652.005	126
652.415	121.2
652.824	113.5
653.233	106.8
653.642	96.1
654.052	107.5
654.461	97.6
654.87	95.5
655.279	77.3
655.688	93.5
656.096	70.8
656.505	92.2
656.914	99.6
657.323	95.2
657.731	76.3
658.14	131.4
658.548	101.8
658.957	98
659.365	83
659.774	114.1
660.182	99.9
660.59	116.7
660.998	106.5
661.407	95.2
661.815	90
662.223	107.3
662.631	92.6
663.039	111.2
663.446	121.2
663.854	122
664.262	113
664.67	102.5
665.077	101.5
665.485	100
665.892	88.7
666.3	87.5
666.707	99.8
667.115	77.6
667.522	89.1
667.929	108
668.337	67.1
668.744	62.3
669.151	66.1
669.558	86.9
669.965	99.3
670.372	57.8
670.779	54.6
671.185	58.4
671.592	38.4
671.999	57.7
672.405	52
672.812	56.7
673.219	40.3
673.625	26.8
674.032	24.8
674.438	41.8
674.844	30
675.25	45.3
675.657	15.7
676.063	31.6
676.469	12
676.875	37.6
677.281	33.8
677.687	8.1
678.093	16
678.499	20
678.904	23.8
679.31	4.6
679.716	21.4
680.121	5.3
680.527	19.9
680.932	47.8
681.338	13.2
681.743	20.6
682.148	-3.5
682.554	31
682.959	7.6
683.364	11
683.769	3.4
684.174	5.2
684.579	28.2
684.984	7.7
685.389	21
685.794	16.4
686.199	32.6
686.603	14.7
687.008	28.7
687.413	11.1
687.817	18.2
688.222	-7.9
688.626	5.5
689.03	10.3
689.435	23
689.839	0.5
690.243	21.8
690.647	10.7
691.051	20.4
691.456	1.7
691.859	-8
692.263	15
692.667	-4.4
693.071	2
693.475	22.4
693.879	14.2
694.282	14.5
694.686	19.5
695.089	45.9
695.493	32.9
695.896	21.4
696.3	28.6
696.703	11
697.106	15.4
697.509	-5.1
697.913	26.1
698.316	6
698.719	30.4
699.122	11
699.525	20.5
699.928	26
700.33	31.9
700.733	35.6
701.136	14.1
701.539	20.7
701.941	19.8
702.344	13.5
702.746	15.9
703.149	24.3
703.551	-1
703.953	10.6
704.356	6.4
704.758	43.6
705.16	29.7
705.562	3.1
705.964	5.5
706.366	33.8
706.768	17.2
707.17	-7
707.572	13.8
707.973	19.6
708.375	16.7
708.777	10
709.178	13.6
709.58	31.5
709.981	25.4
710.383	17.9
710.784	20.8
711.186	25.8
711.587	1.3
711.988	14.5
712.389	29.6
712.79	31.4
713.191	15.8
713.592	38
713.993	2.9
714.394	15.2
714.795	28
715.196	0.2
715.596	6.7
715.997	16.7
716.398	-2.2
716.798	24.1
717.199	23.2
717.599	18.1
718	11.4
718.4	22.4
718.8	9.6
719.2	20.1
719.6	14.7
720.001	25.2
720.401	23.1
720.801	25.5
721.201	30.3
721.6	23.4
722	40.5
722.4	15.1
722.8	12.5
723.199	-6.1
723.599	14.8
723.998	4.9
724.398	41
724.797	10.8
725.197	-6.5
725.596	1.1
725.995	4.2
726.394	12.1
726.794	3.7
727.193	2.7
727.592	9.3
727.991	9.8
728.39	3.4
728.789	9.1
729.187	15.2
729.586	2.4
729.985	16.4
730.383	10.3
730.782	-7.6
731.181	8.3
731.579	33.6
731.977	3.3
732.376	3.9
732.774	16.7
733.172	-4.8
733.571	-0.3
733.969	18.1
734.367	4
734.765	24.1
735.163	16.5
735.561	10.4
735.959	10.7
736.356	42.3
736.754	30.2
737.152	-0.6
737.55	21.5
737.947	23.4
738.345	24.6
738.742	23.9
739.14	47.6
739.537	31.8
739.934	34.3
740.331	32.4
740.729	25.9
741.126	35.4
741.523	36.3
741.92	29.8
742.317	18
742.714	25.1
743.111	38.9
743.507	19.1
743.904	33.9
744.301	21.4
744.697	38.3
745.094	55.5
745.491	14
745.887	37.5
746.283	43.2
746.68	16.8
747.076	33.4
747.472	40.2
747.869	21.2
748.265	29
748.661	40.2
749.057	42.9
749.453	59.4
749.849	29.5
750.244	58.5
750.64	59.7
751.036	38.9
751.432	36.1
751.827	51
752.223	48.5
752.618	56.1
753.014	31.2
753.409	56
753.805	45.3
754.2	53.9
754.595	56.9
754.99	47
755.385	42.8
755.78	53.4
756.175	37.8
756.57	45.2
756.965	52.3
757.36	48.9
757.755	45.4
758.15	58.4
758.544	53.5
758.939	45.6
759.334	47.1
759.728	86.4
760.122	60.3
760.517	80.2
760.911	65.3
761.306	73
761.7	66.9
762.094	88.7
762.488	68.7
762.882	63.1
763.276	51.6
763.67	72.6
764.064	76.2
764.458	85.6
764.852	77.3
765.245	76
765.639	93.1
766.033	110.2
766.426	109.5
766.82	110.9
767.213	118.7
767.606	83.9
768	102.2
768.393	76.8
768.786	86.5
769.179	103.1
769.572	77.4
769.966	95
770.358	74.3
770.751	72.4
771.144	63
771.537	71.5
771.93	67.6
772.323	68.7
772.715	75.3
773.108	49.5
773.5	57.9
773.893	60.4
774.285	81
774.678	49.5
775.07	51.4
775.462	34.7
775.854	28
776.247	39.6
776.639	43.6
777.031	49.9
777.423	27.8
777.815	30.8
778.207	49.7
778.598	44.8
778.99	67.6
779.382	50
779.773	77.3
780.165	98.3
780.557	57
780.948	75.3
781.339	92.9
781.731	51.2
782.122	85.4
782.513	99
782.905	58.6
783.296	74.3
783.687	120.3
784.078	74.6
784.469	79.6
784.86	72.7
785.251	57
785.641	82.6
786.032	72.1
786.423	71.1
786.813	87.9
787.204	77.6
787.594	90.7
787.985	72.1
788.375	80.6
788.766	67.1
789.156	70.5
789.546	103.7
789.936	71.7
790.326	90.2
790.717	76.7
791.107	67.9
791.497	81.5
791.886	79.2
792.276	55.9
792.666	59.8
793.056	60.1
793.445	48.2
793.835	50
794.225	44.9
794.614	45.1
795.004	74
795.393	73.7
795.782	38
796.172	34.3
796.561	50.9
796.95	44.5
797.339	52.3
797.728	63.9
798.117	53
798.506	39.8
798.895	41.5
799.284	27.8
799.673	86.4
800.061	40.3
800.45	45.5
800.839	20.7
801.227	39.1
801.616	10.8
802.004	27.1
802.392	38.2
802.781	28
803.169	31.5
803.557	26
803.945	40.4
804.333	18.6
804.721	24.8
805.109	15.6
805.497	40.1
805.885	21.9
806.273	19.6
806.661	14.6
807.048	7.3
807.436	17.5
807.824	31.4
808.211	20.2
808.599	20.8
808.986	18.6
809.373	39.7
809.761	42.5
810.148	26.9
810.535	25.3
810.922	31.8
811.309	43.7
811.696	22.3
812.083	30.8
812.47	22.7
812.857	17.9
813.244	28.8
813.631	26.5
814.017	39.6
814.404	15.3
814.791	29.7
815.177	46
815.564	35
815.95	10.4
816.336	25.2
816.723	28
817.109	25.3
817.495	35.6
817.881	23.9
818.267	15.1
818.653	22.1
819.039	16.9
819.425	15.9
819.811	15.3
820.197	30.8
820.582	14.1
820.968	45.6
821.354	10.4
821.739	22.2
822.125	9.8
822.51	14
822.895	27.9
823.281	20.2
823.666	36.3
824.051	27.7
824.436	-10
824.822	17.2
825.207	35.9
825.592	6.8
825.976	13.7
826.361	18.2
826.746	22.3
827.131	10.7
827.516	38.2
827.9	16.1
828.285	22.2
828.669	9.7
829.054	23.7
829.438	22.2
829.823	16.9
830.207	27
830.591	23.2
830.975	41.9
831.36	37.1
831.744	13.7
832.128	35.6
832.512	15.3
832.895	34.9
833.279	13.3
833.663	29.6
834.047	4.2
834.431	24
834.814	35.5
835.198	22.8
835.581	24.8
835.965	15.5
836.348	22.4
836.731	12.7
837.115	11.7
837.498	8.4
837.881	31.7
838.264	29.4
838.647	-22.4
839.03	18.8
839.413	15.1
839.796	21.8
840.179	13.3
840.562	16.5
840.944	19.6
841.327	41.2
841.71	26.1
842.092	39.1
842.475	-0.4
842.857	29.3
843.24	29
843.622	21.8
844.004	23.3
844.386	35.2
844.769	29.2
845.151	9.8
845.533	31.8
845.915	19.5
846.297	24.9
846.678	45.8
847.06	-3.3
847.442	25.3
847.824	17.6
848.205	16.9
848.587	19.3
848.968	20.3
849.35	34
849.731	36.5
850.113	9.5
850.494	15.5
850.875	17.4
851.256	19.8
851.638	23.7
852.019	-1
852.4	16.4
852.781	33.7
853.161	21.1
853.542	27.7
853.923	23.7
854.304	29.7
854.685	5.2
855.065	6.1
855.446	20.8
855.826	-0.9
856.207	6.4
856.587	32.5
856.967	16.9
857.348	13.4
857.728	8.6
858.108	5.3
858.488	17.2
858.868	10.9
859.248	-5.1
859.628	14.5
860.008	33.7
860.388	-7.7
860.768	10
861.147	7.5
861.527	17
861.907	22.6
862.286	22.8
862.666	22.1
863.045	-4.3
863.424	39.4
863.804	12.9
864.183	9.7
864.562	22.8
864.941	17.9
865.32	40.7
865.699	35.6
866.078	7.6
866.457	26.2
866.836	21.8
867.215	29.2
867.594	10
867.972	-0.3
868.351	13.8
868.729	30.9
869.108	7.5
869.486	13.6
869.865	19.2
870.243	14.3
870.621	11.2
871	10.1
871.378	31.6
871.756	24.9
872.134	34.6
872.512	17.1
872.89	10.2
873.268	17.7
873.646	31.7
874.023	7.8
874.401	0.3
874.779	14.7
875.156	5.2
875.534	0.5
875.911	5.9
876.289	35.2
876.666	18.8
877.043	26.8
877.421	25.9
877.798	55.3
878.175	26.8
878.552	14.5
878.929	16.6
879.306	21.8
879.683	31.7
880.06	34.8
880.437	22.5
880.813	15.6
881.19	20.5
881.567	16.6
881.943	7.8
882.32	10.5
882.696	16.1
883.073	31.2
883.449	30.1
883.825	23.8
884.202	18.6
884.578	33.3
884.954	23.1
885.33	7.2
885.706	17.6
886.082	28.8
886.458	11.2
886.834	26.2
887.209	1
887.585	2.1
887.961	5.1
888.336	18.9
888.712	26.4
889.087	20.6
889.463	-5.1
889.838	24.2
890.213	22.9
890.589	14.8
890.964	28.7
891.339	23.1
891.714	17.5
892.089	20
892.464	31
892.839	30.2
893.214	15.8
893.589	5.4
893.963	30.7
894.338	9.1
894.713	23.8
895.087	41.1
895.462	23.7
895.836	31
896.211	18
896.585	15.2
896.959	5.8
897.334	27
897.708	10.5
898.082	9.3
898.456	22.4
898.83	8
899.204	-2.6
899.578	-3.7
899.952	37.5
900.325	26.1
900.699	0.3
901.073	8.3
901.446	38.7
901.82	16.7
902.193	23.4
902.567	21.8
902.94	20.4
903.313	27.5
903.687	30.2
904.06	4.1
904.433	19.3
904.806	38.6
905.179	7.2
905.552	-9.9
905.925	15.3
906.298	19.5
906.671	18.7
907.043	10.1
907.416	28.7
907.789	31.3
908.161	34.6
908.534	18.5
908.906	28.8
909.279	11.4
909.651	41.5
910.023	4.1
910.396	35.5
910.768	25.3
911.14	28.9
911.512	17.8
911.884	16
912.256	16
912.628	33.4
912.999	35.5
913.371	13.3
913.743	29
914.115	25.9
914.486	25.4
914.858	30.8
915.229	7.7
915.601	27.2
915.972	17.6
916.343	13.7
916.715	34.8
917.086	21.9
917.457	44.3
917.828	30.2
918.199	20.4
918.57	17.8
918.941	1
919.312	33.2
919.682	27.9
920.053	15.7
920.424	-4.8
920.794	34.9
921.165	9.7
921.536	28.6
921.906	36.5
922.276	5.3
922.647	41.4
923.017	18.9
923.387	14.7
923.757	23.6
924.127	24.7
924.497	22
924.867	28.9
925.237	34
925.607	9.9
925.977	29
926.347	38.1
926.716	30.5
927.086	-4.9
927.456	26.1
927.825	27.6
928.195	24.9
928.564	22.8
928.933	33.6
929.303	10.2
929.672	30.8
930.041	20.2
930.41	33
930.779	21.4
931.148	19.1
931.517	19
931.886	6.8
932.255	35.5
932.624	32.4
932.993	32.7
933.361	43.4
933.73	41.7
934.098	35
934.467	13.7
934.835	15.3
935.204	29.2
935.572	30.3
935.94	19
936.308	18.3
936.677	22.1
937.045	26.5
937.413	26.6
937.781	40.9
938.149	23.1
938.516	30.3
938.884	16.3
939.252	13.5
939.62	29.5
939.987	34.1
940.355	40.3
940.722	31
941.09	32.1
941.457	9.2
941.825	49.5
942.192	20.2
942.559	17.4
942.926	32.4
943.293	32.4
943.66	27.7
944.027	13.9
944.394	30.1
944.761	32
945.128	22.4
945.495	20.8
945.861	32.2
946.228	35.1
946.595	41.5
946.961	24.5
947.328	18
947.694	31.7
948.06	-2.3
948.427	23.7
948.793	35.7
949.159	28.9
949.525	48.3
949.891	-5.4
950.257	38.1
950.623	20.2
950.989	9.3
951.355	36.9
951.721	30.7
952.087	12.1
952.452	23.8
952.818	23.9
953.183	9.6
953.549	25.3
953.914	48.4
954.28	31.3
954.645	34.9
955.01	28.4
955.375	14.1
955.741	21.3
956.106	28.3
956.471	52.7
956.836	18.7
957.201	25.2
957.566	33.9
957.93	25.1
958.295	18
958.66	4.4
959.024	1.3
959.389	4.8
959.753	0.8
960.118	25.1
960.482	14.2
960.847	21.1
961.211	36.8
961.575	-3.3
961.939	14.4
962.303	30
962.667	39.2
963.031	12
963.395	9.8
963.759	42.6
964.123	6.9
964.487	8.6
964.851	16.1
965.214	26.8
965.578	29
965.941	2.5
966.305	13.6
966.668	5.7
967.032	7.2
967.395	16.8
967.758	41.5
968.121	28
968.484	41.3
968.847	28.7
969.21	33.3
969.573	15.2
969.936	13.3
970.299	30.4
970.662	29.3
971.025	22
971.387	22.1
971.75	19.2
972.112	10.1
972.475	13.4
972.837	40
973.2	13.2
973.562	26
973.924	18.9
974.286	35.6
974.649	21.2
975.011	24.7
975.373	0.3
975.735	38
976.097	23
976.458	3.3
976.82	8.1
977.182	16.7
977.544	8.9
977.905	32
978.267	8.7
978.628	1.9
978.99	12.2
979.351	10.5
979.712	25.3
980.074	12.3
980.435	24.5
980.796	-0.5
981.157	-1.8
981.518	-2.9
981.879	11.6
982.24	7.2
982.601	16.4
982.962	-17.6
983.323	18.1
983.683	18.7
984.044	11.4
984.404	-20.7
984.765	18.2
985.125	1
985.486	14.8
985.846	26.7
986.206	21.4
986.567	27.4
986.927	37.3
987.287	35.7
987.647	19.2
988.007	47.6
988.367	8.1
988.727	11.8
989.087	12
989.446	39.8
989.806	27.5
990.166	12.7
990.525	25.5
990.885	16.2
991.244	0.2
991.604	19
991.963	4.1
992.322	41.4
992.682	9.6
993.041	-6.8
993.4	18.8
993.759	16.1
994.118	8
994.477	36.5
994.836	21.8
995.195	27
995.553	6.3
995.912	22.3
996.271	29.6
996.629	25.4
996.988	3.8
997.346	31.1
997.705	13.3
998.063	17.4
998.422	11.2
998.78	11.7
999.138	16.9
999.496	10.6
999.854	20
1000.212	26.4
1000.57	25
1000.928	26.9
1001.286	23.5
1001.644	16.8
1002.001	16.3
1002.359	20.7
1002.717	17.7
1003.074	27.9
1003.432	28.5
1003.789	13.5
1004.147	17.7
1004.504	-0.9
1004.861	22.5
1005.218	29.8
1005.576	15.8
1005.933	19.9
1006.29	33.5
1006.647	-1.1
1007.004	1.7
1007.36	9.1
1007.717	25.2
1008.074	-9.3
1008.431	11.5
1008.787	24.7
1009.144	3.5
1009.5	26.5
1009.857	19.1
1010.213	-3.2
1010.569	36.9
1010.926	28
1011.282	12.6
1011.638	30.3
1011.994	8.6
1012.35	5.2
1012.706	3.3
1013.062	5.9
1013.418	18.4
1013.774	1.2
1014.13	8.9
1014.485	4
1014.841	23.4
1015.197	11.3
1015.552	4.5
1015.907	17.4
1016.263	3.5
1016.618	36.6
1016.974	7.7
1017.329	4.4
1017.684	23
1018.039	11.4
1018.394	20.9
1018.749	26
1019.104	9.4
1019.459	38.1
1019.814	22.4
1020.168	11.2
1020.523	12.9
1020.878	7.9
1021.232	30.6
1021.587	24.2
1021.941	55.6
1022.296	0.4
1022.65	-7.2
1023.004	-2.4
1023.359	13.1
1023.713	23.7
1024.067	-8.8
1024.421	-8
1024.775	18
1025.129	-13.4
1025.483	25.2
1025.837	-23.9
1026.19	27.1
1026.544	21.5
1026.898	1.6
1027.251	9.2
1027.605	-10.9
1027.958	34.4
1028.312	13.6
1028.665	-2.1
1029.018	9.9
1029.372	2
1029.725	3.7
1030.078	10.5
1030.431	6.3
1030.784	-13.8
1031.137	20.2
1031.49	20.8
1031.843	3.4
1032.195	4.9
1032.548	8.9
1032.901	15.1
1033.253	4.3
1033.606	5.7
1033.958	-2.1
1034.311	5.9
1034.663	27.3
1035.016	-12
1035.368	14.6
1035.72	28.7
1036.072	5.8
1036.424	9.8
1036.776	-7.8
1037.128	12.7
1037.48	-7.1
