Data from 0.2bar_Subt2__0__17-04-55-009.txt Node

Date: Thu Jan 06 17:04:55 CET 2022
User: fsatto
Spectrometer: OFX01956
Trigger mode: 0
Integration Time (sec): 6.000000E-3
Scans to average: 10
Nonlinearity correction enabled: false
Boxcar width: 0
Storing dark spectrum: false
XAxis mode: Wavelengths
Number of Pixels in Spectrum: 2136
>>>>>Begin Spectral Data<<<<<
158.236	26.6
158.705	22.1
159.174	19.7
159.643	35.8
160.112	37
160.582	36.8
161.051	25.8
161.52	34.2
161.988	29.5
162.457	38.5
162.926	24.6
163.395	52.7
163.864	34.7
164.332	10.2
164.801	22.8
165.269	33.6
165.738	42.4
166.206	19.6
166.675	45.4
167.143	28.7
167.612	28.4
168.08	29.1
168.548	20
169.016	36.9
169.484	37.5
169.952	47.4
170.42	36
170.888	41.3
171.356	24
171.824	29.9
172.292	28.1
172.759	28.9
173.227	17.3
173.695	32.8
174.162	45.1
174.63	44.1
175.097	26.9
175.565	38.9
176.032	41.4
176.499	23.1
176.967	41.4
177.434	29.1
177.901	33.3
178.368	38.9
178.835	32.7
179.302	56
179.769	44.7
180.236	26.1
180.703	31.2
181.17	45.6
181.637	35.9
182.103	31.8
182.57	24.2
183.036	27.3
183.503	39.3
183.97	21
184.436	26.6
184.902	27.3
185.369	34.7
185.835	27.9
186.301	43.3
186.767	21
187.234	29.5
187.7	35.4
188.166	25.1
188.632	22.5
189.098	40.4
189.563	39.8
190.029	14.4
190.495	31.4
190.961	40.6
191.426	41.3
191.892	37.8
192.358	12.5
192.823	10.7
193.289	20.8
193.754	19.9
194.219	19.1
194.685	43.8
195.15	19.1
195.615	26.9
196.08	26
196.545	28.4
197.01	5.4
197.475	38.2
197.94	28.9
198.405	23.8
198.87	15.8
199.335	42.7
199.8	11.7
200.264	102.6
200.729	95.2
201.193	95.4
201.658	103.6
202.122	90.8
202.587	78
203.051	115.2
203.516	118
203.98	117.2
204.444	116.5
204.908	110.9
205.372	153.6
205.836	174.3
206.3	148.4
206.764	151
207.228	169.6
207.692	157.5
208.156	212.4
208.62	232.2
209.083	280.5
209.547	293.8
210.011	327.9
210.474	369.7
210.938	420.8
211.401	473.2
211.864	537.5
212.328	654.8
212.791	771.1
213.254	910.9
213.717	975.9
214.181	1195.7
214.644	1521.8
215.107	1706.7
215.57	1842.8
216.033	2216.5
216.495	2685.1
216.958	3279.6
217.421	3703.4
217.884	4078.4
218.346	4534.5
218.809	5058.8
219.272	5403.4
219.734	5799.8
220.196	6173.3
220.659	6430.4
221.121	6609.4
221.584	6880.9
222.046	7381.5
222.508	7945.3
222.97	8524.6
223.432	8936.9
223.894	9503.1
224.356	10454.5
224.818	11558.8
225.28	12299.2
225.742	12976.9
226.204	14519.8
226.665	15261.9
227.127	15393.2
227.589	16068.4
228.05	17302.1
228.512	18610.9
228.973	19010.3
229.435	18382.9
229.896	17605.4
230.357	18606.6
230.818	20715.8
231.28	22061.4
231.741	23098.4
232.202	22760.2
232.663	21267.1
233.124	21124.6
233.585	22726.2
234.046	24987.6
234.507	26203.3
234.967	24554.6
235.428	22492.7
235.889	21321.2
236.349	22318.8
236.81	23855.4
237.271	24124.7
237.731	22484.4
238.191	20735.4
238.652	20141.2
239.112	21024.6
239.572	23731.6
240.033	25688.6
240.493	24845.8
240.953	22610.3
241.413	21473.7
241.873	22643.6
242.333	24553.9
242.793	25348.1
243.253	24583.3
243.712	23617.1
244.172	23762
244.632	24762.7
245.092	26664.8
245.551	27331.4
246.011	26356.6
246.47	25091.7
246.93	25172.5
247.389	26175.5
247.848	27552.2
248.308	28148.1
248.767	27988.7
249.226	26986.1
249.685	26180.7
250.144	27609.5
250.603	30990.5
251.062	34203.9
251.521	35191.1
251.98	34711.5
252.439	34552.3
252.897	35873.7
253.356	38265.4
253.815	40654
254.273	40924.5
254.732	40292.2
255.19	36643.3
255.649	33625.4
256.107	32816.4
256.566	33258.2
257.024	34753.2
257.482	34488.8
257.94	32624
258.398	32868.1
258.856	32835.2
259.315	31988.9
259.772	30751.6
260.23	29065.9
260.688	26518.4
261.146	23908.6
261.604	22418.1
262.062	22824.7
262.519	24379.3
262.977	25058.3
263.434	23706.1
263.892	22650.9
264.349	22529.3
264.807	23035.3
265.264	23117.2
265.721	23412.4
266.179	24145.6
266.636	22948.4
267.093	21775.8
267.55	22163.3
268.007	23085.1
268.464	23550
268.921	22595.5
269.378	20710.5
269.835	19283.8
270.291	18597.1
270.748	18170.4
271.205	17715.2
271.661	16342.9
272.118	14843.5
272.574	14289.5
273.031	13975.7
273.487	13590.8
273.944	13407.7
274.4	13406.9
274.856	13413.8
275.312	12832.3
275.768	12349.3
276.225	12231.3
276.681	12585.2
277.137	12700.7
277.593	12363.8
278.048	12020.6
278.504	11639.6
278.96	11430.7
279.416	10968.9
279.871	10585.4
280.327	10455.8
280.783	10319.7
281.238	10056.2
281.694	9417.7
282.149	8823.3
282.604	8579.1
283.06	8306.8
283.515	8072.1
283.97	7825.4
284.425	7452.7
284.88	6928.6
285.335	6305.5
285.79	5784.2
286.245	5370.6
286.7	5670.7
287.155	5962.1
287.61	5690.2
288.064	5372.5
288.519	5284.1
288.974	5216.8
289.428	4894.5
289.883	4720.3
290.337	4770.5
290.792	4841.4
291.246	4874
291.7	4788.7
292.155	4748.9
292.609	4786.1
293.063	4785.1
293.517	4858.3
293.971	4962.9
294.425	4975.3
294.879	4941.2
295.333	4671.8
295.787	4299
296.241	4052.8
296.694	4001.4
297.148	4025.5
297.602	4008.5
298.055	3886.6
298.509	3574.8
298.962	3245.2
299.416	3111.7
299.869	3002.3
300.322	2982.3
300.775	2928.6
301.229	2771.3
301.682	2607.8
302.135	2428.2
302.588	2219
303.041	2172
303.494	2130.3
303.947	2005.7
304.4	1916.3
304.852	1835.5
305.305	1645
305.758	1468
306.21	1346.7
306.663	1258.5
307.115	1193.6
307.568	1164.8
308.02	1119.5
308.473	1039.1
308.925	923.6
309.377	870.8
309.829	833.6
310.282	785.9
310.734	782.8
311.186	772
311.638	726.3
312.09	647.2
312.542	626.1
312.993	617.1
313.445	561.6
313.897	553.6
314.349	487.5
314.8	508.1
315.252	494.1
315.703	442.2
316.155	451.9
316.606	412.6
317.058	406.1
317.509	429.1
317.96	421.3
318.411	378.6
318.863	354.8
319.314	362
319.765	358.3
320.216	364
320.667	321.8
321.117	321.9
321.568	313.9
322.019	316.9
322.47	318.4
322.921	301.6
323.371	282.5
323.822	238.7
324.272	245.6
324.723	219.2
325.173	221.4
325.623	203.2
326.074	206.7
326.524	193.4
326.974	215.4
327.424	250.8
327.874	299.7
328.325	242.2
328.775	186.1
329.224	150.9
329.674	150.5
330.124	151
330.574	140.7
331.024	144.3
331.473	110.2
331.923	122.8
332.373	98.8
332.822	107.5
333.272	84.2
333.721	76
334.17	83
334.62	100.8
335.069	74.4
335.518	70.9
335.967	82.4
336.416	65.4
336.865	61.2
337.314	82.3
337.763	45
338.212	40.3
338.661	71.3
339.11	46.4
339.558	51
340.007	50.7
340.456	58.3
340.904	68.5
341.353	55.4
341.801	44.2
342.25	37.3
342.698	46.6
343.146	62.2
343.595	36.8
344.043	68.1
344.491	49.2
344.939	38.5
345.387	44.3
345.835	33.9
346.283	37.7
346.731	38.9
347.179	19.7
347.626	33.7
348.074	43.5
348.522	36.9
348.969	36.4
349.417	0.1
349.865	67.5
350.312	49.3
350.759	52.7
351.207	37.2
351.654	23.2
352.101	16.2
352.548	47.5
352.996	27.8
353.443	57.7
353.89	41.6
354.337	31.4
354.784	24.4
355.231	55.9
355.677	42
356.124	20.7
356.571	36.6
357.018	38.1
357.464	35.2
357.911	45.2
358.357	21.6
358.804	30.3
359.25	58.2
359.696	32.1
360.143	27.6
360.589	27.3
361.035	21.8
361.481	41.9
361.927	27.8
362.373	35.5
362.819	51.2
363.265	20.5
363.711	23.2
364.157	23
364.603	12.7
365.048	37.7
365.494	29
365.94	48.6
366.385	50.4
366.831	37.4
367.276	22.4
367.722	38.5
368.167	20.3
368.612	20.5
369.057	39.1
369.503	29.4
369.948	18.8
370.393	47.6
370.838	17
371.283	54.4
371.728	44.1
372.173	7.6
372.617	3.9
373.062	-6.8
373.507	22
373.951	24.3
374.396	38.2
374.841	26.4
375.285	39.5
375.729	28.1
376.174	14.5
376.618	43.7
377.062	20.8
377.507	31.5
377.951	29.5
378.395	58.7
378.839	14.2
379.283	41.8
379.727	36
380.171	20.7
380.615	30.1
381.059	30.1
381.502	34.1
381.946	25.2
382.39	50
382.833	27.4
383.277	18.3
383.72	37.5
384.164	32.6
384.607	26.2
385.05	34
385.494	24.1
385.937	25.4
386.38	30.9
386.823	55.9
387.266	50.8
387.709	20.5
388.152	42.5
388.595	8
389.038	18.1
389.481	29.9
389.923	24.9
390.366	25.4
390.809	36.3
391.251	22.2
391.694	44.2
392.136	28.4
392.579	4
393.021	5.7
393.463	27
393.906	7.6
394.348	19.7
394.79	26.5
395.232	28.4
395.674	31.2
396.116	24
396.558	44.2
397	24.8
397.442	56.3
397.884	46
398.325	26.6
398.767	41.6
399.209	21.7
399.65	25.5
400.092	38.9
400.533	37.9
400.974	25
401.416	29.4
401.857	26.4
402.298	43.7
402.74	37.2
403.181	35.4
403.622	37.7
404.063	45.9
404.504	31.1
404.945	35.7
405.386	30.8
405.826	37.6
406.267	25.2
406.708	34.1
407.149	30
407.589	37.7
408.03	-2.6
408.47	22.6
408.911	24.2
409.351	7.3
409.791	31.2
410.232	21.9
410.672	23.5
411.112	33.6
411.552	23.7
411.992	40.4
412.432	41.9
412.872	31.8
413.312	43
413.752	21.5
414.192	29.5
414.632	48.8
415.071	17.9
415.511	30.2
415.951	25.5
416.39	27.4
416.83	33.7
417.269	35.9
417.708	13.1
418.148	28.2
418.587	24.6
419.026	20.3
419.465	20.4
419.904	61.3
420.344	45.9
420.783	27.6
421.221	35.7
421.66	19.1
422.099	41.1
422.538	41
422.977	46
423.415	27.3
423.854	29.5
424.293	24.7
424.731	16.6
425.17	45.8
425.608	21
426.046	45
426.485	10.3
426.923	37.9
427.361	41.5
427.799	37.6
428.237	22.9
428.675	38.5
429.113	33.3
429.551	30.7
429.989	22.8
430.427	19.9
430.865	23.8
431.303	23.9
431.74	18.2
432.178	27.4
432.615	34.6
433.053	20
433.49	45.8
433.928	39.9
434.365	29.1
434.802	28.4
435.24	49.7
435.677	30
436.114	21
436.551	42.1
436.988	21.1
437.425	21.9
437.862	18.3
438.299	26.2
438.736	35.2
439.172	16.8
439.609	26.3
440.046	26
440.482	43.8
440.919	45.8
441.355	26.3
441.792	37.5
442.228	19.6
442.665	22
443.101	29.6
443.537	59.6
443.973	41.1
444.409	49.9
444.845	44.4
445.281	30.8
445.717	34.6
446.153	36.7
446.589	44.3
447.025	26
447.461	31.3
447.896	32.8
448.332	37.7
448.768	37.9
449.203	48.7
449.639	11.6
450.074	20.2
450.509	42.2
450.945	38.2
451.38	43.5
451.815	33.8
452.25	33.2
452.685	24.5
453.12	50.3
453.555	37.8
453.99	26.6
454.425	58.7
454.86	42.3
455.295	36.2
455.73	31.4
456.164	3.8
456.599	51.4
457.033	37.3
457.468	37.9
457.902	38.7
458.337	53
458.771	48.9
459.205	53.4
459.64	44.2
460.074	46.7
460.508	51.4
460.942	29.8
461.376	19.7
461.81	40.1
462.244	46.4
462.678	22.4
463.112	31.6
463.545	25.7
463.979	29.3
464.413	33.4
464.846	39.5
465.28	40.7
465.713	30
466.147	56.7
466.58	46.1
467.014	15.1
467.447	26.1
467.88	20.2
468.313	38.6
468.746	43.5
469.179	33.4
469.612	22.5
470.045	42.3
470.478	50.5
470.911	38.1
471.344	22.9
471.777	48.6
472.209	33.1
472.642	41.7
473.074	28.7
473.507	59.8
473.939	48.6
474.372	44.7
474.804	25.5
475.236	33.1
475.669	56
476.101	51.1
476.533	74.7
476.965	30.6
477.397	43.3
477.829	37
478.261	31.6
478.693	42.9
479.125	42.8
479.557	36.8
479.988	41.8
480.42	49.5
480.852	34.9
481.283	49.5
481.715	29
482.146	45.9
482.577	44.4
483.009	22.6
483.44	48.1
483.871	43.8
484.302	38.6
484.734	42.9
485.165	42
485.596	26.3
486.027	51.3
486.457	59.8
486.888	37.5
487.319	43
487.75	45.8
488.181	64
488.611	39.6
489.042	35.5
489.472	41.5
489.903	55.5
490.333	33.2
490.764	32
491.194	62.8
491.624	41.8
492.054	42.9
492.484	34.7
492.915	32.3
493.345	33.9
493.775	29.9
494.204	32.7
494.634	46.5
495.064	31.5
495.494	58.9
495.924	27.8
496.353	48.5
496.783	36.7
497.212	42.4
497.642	21.2
498.071	52.2
498.501	38.7
498.93	35.1
499.359	36.5
499.789	35.1
500.218	52.9
500.647	50.5
501.076	54.8
501.505	43.2
501.934	28.6
502.363	44.2
502.792	50
503.221	52.5
503.649	36.7
504.078	40.2
504.507	47.7
504.935	21.1
505.364	42.1
505.792	47.2
506.221	38.5
506.649	27.8
507.077	26.9
507.506	57.1
507.934	64.7
508.362	7.3
508.79	6.9
509.218	19.7
509.646	14.3
510.074	27.5
510.502	25.3
510.93	23.7
511.357	28.3
511.785	29.1
512.213	12.4
512.64	35.7
513.068	36.9
513.496	40.6
513.923	32.7
514.35	11.3
514.778	28.9
515.205	54.9
515.632	26.9
516.059	28.1
516.486	16.7
516.914	25.1
517.341	20
517.768	38.6
518.194	19.4
518.621	19.6
519.048	36.7
519.475	39.1
519.902	50.7
520.328	43.9
520.755	18.8
521.181	30.9
521.608	37.1
522.034	27.6
522.461	15.6
522.887	36
523.313	46.3
523.739	31.4
524.165	26.9
524.592	37
525.018	40.9
525.444	35.5
525.869	30
526.295	0.6
526.721	20.4
527.147	23.8
527.573	33.4
527.998	46.3
528.424	12.3
528.849	15.5
529.275	19.6
529.7	28.6
530.126	38.4
530.551	29.7
530.976	30.3
531.402	44.8
531.827	23.7
532.252	32.8
532.677	17.2
533.102	34.2
533.527	41.2
533.952	14.2
534.377	21.7
534.801	36.3
535.226	26
535.651	40.9
536.076	36.4
536.5	18.5
536.925	42.6
537.349	13.9
537.773	40.2
538.198	34.5
538.622	47.1
539.046	47.8
539.471	39.7
539.895	35.8
540.319	38.3
540.743	28.6
541.167	12.3
541.591	0.6
542.015	21.9
542.438	21.4
542.862	47.3
543.286	19.2
543.71	16.7
544.133	25.4
544.557	28.7
544.98	14.6
545.404	48.8
545.827	25.1
546.25	4.1
546.674	21.8
547.097	46.8
547.52	10.1
547.943	28
548.366	52.7
548.789	12.5
549.212	13.8
549.635	33.2
550.058	49
550.481	39.6
550.903	60.2
551.326	37.7
551.749	22.8
552.171	19.8
552.594	46.4
553.016	33.7
553.438	37.8
553.861	34.5
554.283	32.1
554.705	39
555.128	18.5
555.55	10.8
555.972	69.6
556.394	13.5
556.816	47.7
557.238	48.3
557.659	30.1
558.081	9.6
558.503	40.3
558.925	35.2
559.346	10.6
559.768	35.8
560.189	41.7
560.611	22.3
561.032	43.8
561.454	38.6
561.875	27.2
562.296	28.9
562.718	20.4
563.139	58.5
563.56	18.4
563.981	51.1
564.402	32.2
564.823	28
565.244	48.5
565.664	41.6
566.085	35.4
566.506	38.9
566.927	29.1
567.347	66.8
567.768	45.8
568.188	40.7
568.609	34.3
569.029	27.8
569.449	18.1
569.87	67.3
570.29	32.9
570.71	29.9
571.13	41.6
571.55	32.2
571.97	61.1
572.39	25.8
572.81	54.5
573.23	19.1
573.65	54.4
574.069	44.1
574.489	47.2
574.909	45.4
575.328	67.9
575.748	47.1
576.167	27.4
576.587	18.1
577.006	68.3
577.425	18.6
577.844	43.4
578.264	9.3
578.683	42.2
579.102	49.5
579.521	50.6
579.94	41.3
580.359	5.2
580.778	30.2
581.196	26.5
581.615	58.3
582.034	57.7
582.452	13.8
582.871	47.6
583.29	36.8
583.708	38.7
584.126	36.4
584.545	21.1
584.963	34.1
585.381	25
585.8	35.7
586.218	44
586.636	1.7
587.054	44.4
587.472	38.8
587.89	14.1
588.308	17
588.725	54.5
589.143	39.8
589.561	46.4
589.979	25.3
590.396	51.7
590.814	34.8
591.231	3.6
591.649	35.8
592.066	32.2
592.483	23.4
592.901	18.3
593.318	32.9
593.735	23.6
594.152	7.5
594.569	11.1
594.986	42.4
595.403	34.8
595.82	27.3
596.237	38.8
596.654	36.7
597.07	31.1
597.487	34.1
597.904	29.4
598.32	34.1
598.737	-8.6
599.153	4
599.57	12.7
599.986	24.2
600.402	39
600.818	12.6
601.235	27.2
601.651	25.9
602.067	18.7
602.483	26.6
602.899	38.8
603.315	34.8
603.73	46
604.146	33.7
604.562	47.7
604.978	58.9
605.393	34.1
605.809	32
606.224	24.7
606.64	45
607.055	48.6
607.471	58.1
607.886	13.9
608.301	8.9
608.716	43
609.131	45.4
609.547	39
609.962	46.1
610.377	37.9
610.791	34.8
611.206	39.4
611.621	30
612.036	43.6
612.451	32.3
612.865	51.7
613.28	18.3
613.694	52.9
614.109	41.3
614.523	45.9
614.938	34.9
615.352	30.2
615.766	61.9
616.18	40.9
616.595	16.7
617.009	43.9
617.423	50
617.837	34.4
618.251	18
618.664	34.1
619.078	21.9
619.492	52.7
619.906	42.5
620.319	53.8
620.733	48.3
621.146	32.2
621.56	69.7
621.973	29.6
622.387	61.1
622.8	55
623.213	40.7
623.627	32.4
624.04	57.6
624.453	45
624.866	48.7
625.279	67.7
625.692	74.3
626.105	70.4
626.518	43.3
626.93	59.4
627.343	61.8
627.756	56.1
628.168	43.9
628.581	87.6
628.993	88.5
629.406	65.7
629.818	55.6
630.231	65
630.643	66.1
631.055	106.9
631.467	67.1
631.879	77.4
632.291	74.6
632.703	92.4
633.115	90.5
633.527	97.2
633.939	96.9
634.351	83.2
634.763	101.9
635.174	122.2
635.586	119.1
635.997	115.1
636.409	135.5
636.82	149.8
637.232	122.6
637.643	147.9
638.054	125.2
638.466	128.1
638.877	187.6
639.288	153.7
639.699	126.6
640.11	158.5
640.521	157.1
640.932	162
641.343	157.6
641.753	152
642.164	159.9
642.575	179.5
642.986	189.9
643.396	159.5
643.807	150.2
644.217	158.3
644.627	160.2
645.038	164.4
645.448	153.6
645.858	165.2
646.269	162.8
646.679	197.7
647.089	170.6
647.499	156
647.909	179.1
648.319	148.9
648.728	168.5
649.138	149.2
649.548	157.5
649.958	167.1
650.367	152.5
650.777	150.8
651.186	159.8
651.596	192.4
652.005	155.8
652.415	145.7
652.824	144.6
653.233	144.6
653.642	131
654.052	161.4
654.461	143.4
654.87	137.9
655.279	122.2
655.688	141
656.096	108.8
656.505	128.8
656.914	126.2
657.323	114.8
657.731	102.2
658.14	155.6
658.548	107.8
658.957	115.9
659.365	88.6
659.774	126.1
660.182	106.5
660.59	115.7
660.998	112
661.407	116.7
661.815	101.4
662.223	122
662.631	90.9
663.039	110.9
663.446	108.8
663.854	121.4
664.262	109.2
664.67	98.1
665.077	105.9
665.485	104
665.892	78.1
666.3	79.8
666.707	94.4
667.115	80.2
667.522	96
667.929	110.7
668.337	69
668.744	67.7
669.151	68.1
669.558	90.8
669.965	110.4
670.372	73.5
670.779	54.1
671.185	72
671.592	45.4
671.999	62.6
672.405	65.2
672.812	67.1
673.219	57.9
673.625	23.4
674.032	38.5
674.438	63.1
674.844	36.9
675.25	61.1
675.657	30.9
676.063	41.2
676.469	25.2
676.875	51.9
677.281	34.4
677.687	23.4
678.093	33.7
678.499	26.1
678.904	43.6
679.31	19.2
679.716	34.3
680.121	8.7
680.527	27.2
680.932	54.6
681.338	16.4
681.743	34.7
682.148	5.9
682.554	37.1
682.959	24.7
683.364	14.5
683.769	13.6
684.174	16
684.579	30
684.984	20.5
685.389	34
685.794	19.8
686.199	44.6
686.603	19.7
687.008	39.7
687.413	23.4
687.817	30.6
688.222	7.3
688.626	18.3
689.03	24.7
689.435	28.6
689.839	0.4
690.243	21.5
690.647	28.6
691.051	32.8
691.456	11.9
691.859	10.3
692.263	29.5
692.667	6
693.071	17.2
693.475	31
693.879	32.4
694.282	18.3
694.686	23.1
695.089	55.7
695.493	53.5
695.896	33.2
696.3	39.5
696.703	26.8
697.106	21.6
697.509	7.6
697.913	35.6
698.316	23.3
698.719	45.2
699.122	25.2
699.525	23.1
699.928	43.1
700.33	52.3
700.733	43.2
701.136	22.3
701.539	26.2
701.941	37.2
702.344	28.9
702.746	33
703.149	35.2
703.551	15.9
703.953	20.5
704.356	20.8
704.758	55.4
705.16	40
705.562	14.7
705.964	24.3
706.366	44.7
706.768	23.1
707.17	10.8
707.572	32.8
707.973	39.7
708.375	28.7
708.777	21.9
709.178	19
709.58	42.2
709.981	46.3
710.383	30.4
710.784	35.2
711.186	50.1
711.587	9.1
711.988	26.2
712.389	35.7
712.79	41.6
713.191	35.5
713.592	61.5
713.993	4.5
714.394	23.4
714.795	40.3
715.196	6.1
715.596	9.9
715.997	22.7
716.398	10.3
716.798	36.6
717.199	38.5
717.599	32.4
718	15.3
718.4	32.6
718.8	23.1
719.2	30.6
719.6	26
720.001	36.9
720.401	36.5
720.801	43.5
721.201	44
721.6	31.1
722	48.3
722.4	10.9
722.8	25.6
723.199	5.1
723.599	33.8
723.998	13.3
724.398	59.1
724.797	20.7
725.197	12.8
725.596	14.2
725.995	23.2
726.394	29.3
726.794	17.2
727.193	11.3
727.592	21.2
727.991	27.3
728.39	14.1
728.789	22.1
729.187	24.5
729.586	13.9
729.985	25.2
730.383	19
730.782	7
731.181	25.4
731.579	45.7
731.977	15.6
732.376	24.3
732.774	31.6
733.172	18.2
733.571	15.8
733.969	30.4
734.367	13.7
734.765	39.1
735.163	26.7
735.561	18.5
735.959	22
736.356	53.4
736.754	33.1
737.152	15.9
737.55	36
737.947	35.7
738.345	31
738.742	44.6
739.14	63.1
739.537	51.5
739.934	51
740.331	54.1
740.729	43.1
741.126	44.4
741.523	52.3
741.92	50.2
742.317	38
742.714	47.3
743.111	49.2
743.507	35.8
743.904	48.6
744.301	31
744.697	47.3
745.094	72.5
745.491	31
745.887	49.5
746.283	60
746.68	20.3
747.076	55.2
747.472	43.6
747.869	32.2
748.265	40.6
748.661	41
749.057	54.4
749.453	65.2
749.849	40.5
750.244	67.3
750.64	62.8
751.036	35
751.432	56.2
751.827	61.1
752.223	59.4
752.618	59.1
753.014	38.3
753.409	67
753.805	51.7
754.2	65.1
754.595	61.4
754.99	60
755.385	55.1
755.78	46.7
756.175	45.5
756.57	60.7
756.965	72.1
757.36	65.3
757.755	75.5
758.15	82.6
758.544	85.4
758.939	71.3
759.334	80.1
759.728	115
760.122	100
760.517	117.8
760.911	100.1
761.306	102.4
761.7	98.6
762.094	120.2
762.488	99.6
762.882	87.5
763.276	73.1
763.67	99.9
764.064	98.5
764.458	104.8
764.852	108.8
765.245	94.2
765.639	120.6
766.033	128.2
766.426	124.4
766.82	135.5
767.213	141.7
767.606	104.7
768	117.3
768.393	101.5
768.786	96
769.179	126
769.572	91.7
769.966	106.3
770.358	86.2
770.751	85.6
771.144	75
771.537	91.5
771.93	91.2
772.323	95.5
772.715	92.8
773.108	71.9
773.5	85.5
773.893	75.9
774.285	97.8
774.678	56.1
775.07	69
775.462	55.3
775.854	51.7
776.247	62.2
776.639	55.2
777.031	75.5
777.423	50.4
777.815	64.9
778.207	81
778.598	64.4
778.99	93.5
779.382	93.5
779.773	105.7
780.165	139.6
780.557	99.2
780.948	112.9
781.339	145.8
781.731	105.4
782.122	136.1
782.513	144.6
782.905	119.3
783.296	127.8
783.687	158.1
784.078	117.7
784.469	129.9
784.86	112
785.251	91.4
785.641	113.6
786.032	103.3
786.423	98.3
786.813	121.4
787.204	104.6
787.594	116.2
787.985	90.5
788.375	101.6
788.766	78.1
789.156	90
789.546	119
789.936	69.7
790.326	103.8
790.717	93.7
791.107	82.8
791.497	93.2
791.886	89.3
792.276	64.8
792.666	64.7
793.056	76
793.445	52.5
793.835	62
794.225	52.5
794.614	51.2
795.004	77.9
795.393	81.4
795.782	49.6
796.172	44.4
796.561	57.8
796.95	57.7
797.339	58.2
797.728	80.6
798.117	65
798.506	49.2
798.895	63.5
799.284	41.7
799.673	96.7
800.061	63.4
800.45	59
800.839	42.3
801.227	59.2
801.616	30.3
802.004	55.5
802.392	59.6
802.781	36.8
803.169	48.5
803.557	41.5
803.945	62.8
804.333	39.1
804.721	45.9
805.109	39
805.497	58.9
805.885	47.4
806.273	41.5
806.661	37.8
807.048	18.5
807.436	35.8
807.824	42.4
808.211	37.3
808.599	35
808.986	28.9
809.373	56.6
809.761	57.7
810.148	48.9
810.535	41.4
810.922	56.5
811.309	53.7
811.696	31.1
812.083	43.6
812.47	35.9
812.857	21.2
813.244	46.2
813.631	41.2
814.017	61.4
814.404	35.7
814.791	45.4
815.177	53.3
815.564	54.9
815.95	19.8
816.336	42.3
816.723	29.6
817.109	46.6
817.495	47.9
817.881	28.1
818.267	29.9
818.653	46.1
819.039	43.2
819.425	32.1
819.811	29.3
820.197	37.6
820.582	19.9
820.968	54.6
821.354	17.7
821.739	40.1
822.125	20.9
822.51	21.3
822.895	26.5
823.281	33
823.666	48.5
824.051	42.9
824.436	0
824.822	37.2
825.207	45.4
825.592	18.4
825.976	21.4
826.361	30.7
826.746	40
827.131	27
827.516	50
827.9	28.9
828.285	31
828.669	24.9
829.054	37.2
829.438	32.2
829.823	21.1
830.207	34.9
830.591	43.4
830.975	56
831.36	41.8
831.744	25.6
832.128	39.6
832.512	27.2
832.895	43
833.279	24
833.663	47.4
834.047	8.4
834.431	38.2
834.814	57.9
835.198	35.3
835.581	46
835.965	16.9
836.348	31.3
836.731	29.6
837.115	28.5
837.498	14.9
837.881	43.5
838.264	28.8
838.647	-13.5
839.03	26.9
839.413	24.8
839.796	25.7
840.179	24.4
840.562	26.7
840.944	33.8
841.327	55.6
841.71	45.4
842.092	48.1
842.475	22
842.857	37
843.24	39.1
843.622	31.1
844.004	30.6
844.386	41.9
844.769	41.2
845.151	16
845.533	40.8
845.915	33.8
846.297	29.7
846.678	61.6
847.06	24.3
847.442	38.1
847.824	41.7
848.205	36.5
848.587	31.8
848.968	31.8
849.35	45.6
849.731	52.6
850.113	25.3
850.494	25.8
850.875	31.2
851.256	32.1
851.638	33.5
852.019	4.3
852.4	26.6
852.781	50.2
853.161	40.2
853.542	41.2
853.923	50.6
854.304	38.2
854.685	36.7
855.065	19
855.446	22.5
855.826	14.1
856.207	14.9
856.587	41.1
856.967	27.3
857.348	24.5
857.728	17.1
858.108	20.3
858.488	23.2
858.868	31.2
859.248	8
859.628	29.1
860.008	49.5
860.388	11.8
860.768	34.3
861.147	18.3
861.527	36.1
861.907	34.6
862.286	36.4
862.666	43.8
863.045	25.8
863.424	51.7
863.804	33.8
864.183	28.2
864.562	33.9
864.941	30.7
865.32	53.1
865.699	44.1
866.078	18.4
866.457	39.1
866.836	28.4
867.215	34.6
867.594	23.6
867.972	10.3
868.351	35.9
868.729	49.2
869.108	20.8
869.486	25
869.865	38.5
870.243	22.3
870.621	17.8
871	24.2
871.378	39.5
871.756	39.9
872.134	47.5
872.512	37.2
872.89	26.3
873.268	25.3
873.646	49.4
874.023	30.3
874.401	17.3
874.779	28.5
875.156	24.5
875.534	13.3
875.911	23.8
876.289	53.4
876.666	31.6
877.043	35.8
877.421	30.8
877.798	60.6
878.175	35.4
878.552	18.8
878.929	34.9
879.306	36.5
879.683	52.9
880.06	43
880.437	36.7
880.813	22.4
881.19	35.1
881.567	28.1
881.943	15
882.32	31.5
882.696	31.8
883.073	39.7
883.449	30.3
883.825	31.7
884.202	27
884.578	40.5
884.954	27
885.33	18.8
885.706	34.6
886.082	34.9
886.458	22.7
886.834	39.3
887.209	11.7
887.585	12.7
887.961	19.6
888.336	36.1
888.712	50
889.087	41.5
889.463	11.5
889.838	33.9
890.213	31.7
890.589	21
890.964	39.6
891.339	33.7
891.714	30.7
892.089	34.6
892.464	42.6
892.839	40.9
893.214	24.9
893.589	20.9
893.963	40.9
894.338	20.1
894.713	34
895.087	50.9
895.462	31.8
895.836	37.1
896.211	28.7
896.585	24.7
896.959	27.5
897.334	32.2
897.708	16.7
898.082	28.6
898.456	47.1
898.83	22.8
899.204	14.9
899.578	12.3
899.952	55.1
900.325	40.5
900.699	8
901.073	19.8
901.446	42.9
901.82	34.3
902.193	28.5
902.567	30.4
902.94	25.2
903.313	38.2
903.687	42.5
904.06	23
904.433	15.8
904.806	46
905.179	21.6
905.552	6.9
905.925	40.7
906.298	28.1
906.671	28.6
907.043	29.9
907.416	37.3
907.789	44.1
908.161	44.8
908.534	34.7
908.906	44.6
909.279	21.3
909.651	53.8
910.023	6.8
910.396	45.8
910.768	30
911.14	35.2
911.512	22.8
911.884	26.4
912.256	21
912.628	39.4
912.999	41.4
913.371	23.1
913.743	43.4
914.115	40.6
914.486	38.3
914.858	42.6
915.229	26.5
915.601	32.5
915.972	38.3
916.343	25.6
916.715	48.8
917.086	34.6
917.457	51.5
917.828	38.8
918.199	42.2
918.57	34.4
918.941	9.6
919.312	51.7
919.682	37.3
920.053	26.5
920.424	14.5
920.794	53.7
921.165	23.8
921.536	44.6
921.906	50
922.276	25.1
922.647	51.8
923.017	38.6
923.387	28.2
923.757	37.4
924.127	45.8
924.497	47.6
924.867	45.1
925.237	42.9
925.607	18.7
925.977	44.9
926.347	49.2
926.716	53.4
927.086	9.6
927.456	38.3
927.825	47.5
928.195	35.3
928.564	36.9
928.933	47.3
929.303	31.8
929.672	42.2
930.041	38.4
930.41	49.9
930.779	31
931.148	34.2
931.517	23.3
931.886	13.9
932.255	50.5
932.624	49
932.993	43.5
933.361	45.9
933.73	53.7
934.098	45.6
934.467	23.5
934.835	26.3
935.204	42.7
935.572	45
935.94	37.4
936.308	33.8
936.677	32.5
937.045	39.9
937.413	37.9
937.781	45.7
938.149	39.7
938.516	43.2
938.884	21
939.252	16
939.62	36.3
939.987	46.6
940.355	44.1
940.722	38.3
941.09	36.7
941.457	28.3
941.825	54.4
942.192	29.4
942.559	26.9
942.926	29.7
943.293	48.5
943.66	37.2
944.027	23.2
944.394	26.6
944.761	39.1
945.128	40.8
945.495	35.8
945.861	46.2
946.228	49.1
946.595	51
946.961	33.3
947.328	20
947.694	42.9
948.06	11.8
948.427	36.6
948.793	57.4
949.159	37.9
949.525	50.8
949.891	3.4
950.257	52.3
950.623	32.7
950.989	15
951.355	56.8
951.721	38.5
952.087	24.1
952.452	39.9
952.818	41.9
953.183	27.8
953.549	31.1
953.914	60.4
954.28	41.6
954.645	51
955.01	41.6
955.375	21.2
955.741	33.7
956.106	48
956.471	61.4
956.836	39.4
957.201	32.6
957.566	51
957.93	42
958.295	41.6
958.66	14.5
959.024	21.2
959.389	20.4
959.753	11.4
960.118	37.2
960.482	39.9
960.847	34.1
961.211	46.2
961.575	21.2
961.939	34
962.303	37.7
962.667	45.7
963.031	24.4
963.395	24.7
963.759	53.2
964.123	15
964.487	28
964.851	27.1
965.214	45.5
965.578	42.3
965.941	16.7
966.305	24.7
966.668	16.9
967.032	16.2
967.395	19.8
967.758	50
968.121	32.9
968.484	54.9
968.847	31
969.21	51.2
969.573	31.4
969.936	34.4
970.299	30.4
970.662	44.6
971.025	29.5
971.387	32.5
971.75	28.4
972.112	19.6
972.475	17.1
972.837	50.7
973.2	33.3
973.562	32.2
973.924	23.7
974.286	43.4
974.649	32.3
975.011	33.4
975.373	9.3
975.735	47.4
976.097	29.7
976.458	22.8
976.82	13.3
977.182	37.6
977.544	21.4
977.905	41.1
978.267	20.2
978.628	-0.5
978.99	25.8
979.351	26.3
979.712	36.5
980.074	24.6
980.435	45.7
980.796	11.9
981.157	16.4
981.518	11.3
981.879	32.9
982.24	20.6
982.601	28.2
982.962	3.2
983.323	24.2
983.683	36.1
984.044	39.4
984.404	-2.3
984.765	26.2
985.125	22.2
985.486	29.2
985.846	36.5
986.206	34.9
986.567	41
986.927	45
987.287	44.4
987.647	29.9
988.007	59.5
988.367	24.4
988.727	20.2
989.087	28.1
989.446	36
989.806	39
990.166	27.4
990.525	35.3
990.885	33.3
991.244	18.8
991.604	33
991.963	13.7
992.322	39.9
992.682	21.2
993.041	14.2
993.4	26.1
993.759	36.7
994.118	16.9
994.477	48.5
994.836	35.9
995.195	42.7
995.553	11
995.912	33.8
996.271	35.8
996.629	42.5
996.988	19.6
997.346	36.7
997.705	35.2
998.063	20.9
998.422	26.4
998.78	24.8
999.138	35.3
999.496	25
999.854	40.2
1000.212	44.3
1000.57	45.8
1000.928	41.6
1001.286	31.9
1001.644	37.8
1002.001	25.3
1002.359	31.6
1002.717	32.4
1003.074	43.6
1003.432	39.1
1003.789	24.2
1004.147	23.3
1004.504	6.5
1004.861	37.5
1005.218	50
1005.576	26.2
1005.933	39.1
1006.29	46.7
1006.647	8.9
1007.004	7.9
1007.36	3.8
1007.717	41.7
1008.074	3.4
1008.431	25.6
1008.787	39.4
1009.144	21.7
1009.5	39.5
1009.857	36
1010.213	9.1
1010.569	45.8
1010.926	37.9
1011.282	21.3
1011.638	48.4
1011.994	20.5
1012.35	17.1
1012.706	9.3
1013.062	19.7
1013.418	29.9
1013.774	11.7
1014.13	20.7
1014.485	18.2
1014.841	32.7
1015.197	19.6
1015.552	21.5
1015.907	29
1016.263	9.9
1016.618	48
1016.974	21.8
1017.329	23.5
1017.684	36.3
1018.039	16.4
1018.394	33.7
1018.749	33.5
1019.104	22.7
1019.459	46.1
1019.814	37
1020.168	25.4
1020.523	27.4
1020.878	16
1021.232	43.2
1021.587	34.6
1021.941	49.2
1022.296	14.4
1022.65	4.6
1023.004	4.6
1023.359	18.6
1023.713	35.7
1024.067	8.1
1024.421	8
1024.775	35.8
1025.129	0
1025.483	33.5
1025.837	-11.7
1026.19	44.1
1026.544	41.5
1026.898	14.2
1027.251	22.3
1027.605	4.6
1027.958	46.5
1028.312	21.4
1028.665	11.9
1029.018	22.5
1029.372	7.7
1029.725	20
1030.078	21.6
1030.431	18.1
1030.784	-7.6
1031.137	37.6
1031.49	34
1031.843	5.7
1032.195	15.3
1032.548	16.9
1032.901	16.4
1033.253	19.5
1033.606	21.4
1033.958	10.6
1034.311	24
1034.663	39
1035.016	-1
1035.368	30.8
1035.72	40.3
1036.072	17.4
1036.424	20.5
1036.776	3.4
1037.128	21.5
1037.48	6.2
