Data from 4.0bar_Subt2__0__19-59-05-920.txt Node

Date: Thu Jan 06 19:59:05 CET 2022
User: fsatto
Spectrometer: OFX01956
Trigger mode: 0
Integration Time (sec): 2.000000E-3
Scans to average: 10
Nonlinearity correction enabled: false
Boxcar width: 0
Storing dark spectrum: false
XAxis mode: Wavelengths
Number of Pixels in Spectrum: 2136
>>>>>Begin Spectral Data<<<<<
158.236	9.5
158.705	22.2
159.174	14.3
159.643	10.3
160.112	13.5
160.582	8
161.051	6.9
161.52	3.9
161.988	12.1
162.457	7.1
162.926	6.7
163.395	13
163.864	2
164.332	14.3
164.801	9.5
165.269	11.1
165.738	23.2
166.206	0.8
166.675	7.6
167.143	13
167.612	20.2
168.08	5.5
168.548	11.7
169.016	13.2
169.484	5.4
169.952	3.1
170.42	9.9
170.888	11.1
171.356	15.1
171.824	2.7
172.292	16.5
172.759	10.2
173.227	10.9
173.695	12
174.162	8.2
174.63	5.7
175.097	8.6
175.565	5.5
176.032	15
176.499	5.6
176.967	5
177.434	5.5
177.901	17.2
178.368	6.8
178.835	19.9
179.302	17.3
179.769	12.3
180.236	10.2
180.703	10.9
181.17	19.1
181.637	13.9
182.103	0.6
182.57	9.8
183.036	8.8
183.503	1.7
183.97	10.2
184.436	6
184.902	9.1
185.369	4.8
185.835	13.3
186.301	3
186.767	9.5
187.234	8.8
187.7	12.6
188.166	8.8
188.632	4.1
189.098	10.2
189.563	11.8
190.029	1.7
190.495	0.2
190.961	9.3
191.426	2.8
191.892	10.6
192.358	-2.4
192.823	14.8
193.289	-4.1
193.754	10.3
194.219	15.7
194.685	4.9
195.15	18.9
195.615	7.7
196.08	3.7
196.545	14.3
197.01	7.9
197.475	9.8
197.94	7.2
198.405	13.5
198.87	11.7
199.335	16.7
199.8	7.8
200.264	626.2
200.729	628.6
201.193	654.5
201.658	650.4
202.122	664.2
202.587	676.4
203.051	709.6
203.516	717.7
203.98	740.3
204.444	756.9
204.908	822.7
205.372	800.4
205.836	826.6
206.3	852.3
206.764	901.4
207.228	913.5
207.692	950.7
208.156	950.5
208.62	1013.7
209.083	1107.9
209.547	1164.9
210.011	1251
210.474	1359
210.938	1500.6
211.401	1628.5
211.864	1728.7
212.328	1892
212.791	2045.5
213.254	2271.4
213.717	2516.2
214.181	2750.2
214.644	3000
215.107	3241.4
215.57	3339.1
216.033	3593.2
216.495	3912.6
216.958	4235.3
217.421	4356.9
217.884	4638.4
218.346	4780.6
218.809	4837.8
219.272	5178.4
219.734	5772.8
220.196	6084.4
220.659	6589.8
221.121	6886.3
221.584	6878.3
222.046	6821.7
222.508	6760
222.97	7087.7
223.432	7737.5
223.894	8418.9
224.356	8606.9
224.818	8680.3
225.28	8998
225.742	9713.8
226.204	10738.1
226.665	11323.7
227.127	11232.8
227.589	10637.9
228.05	11052.8
228.512	11870.3
228.973	12344.3
229.435	12560.4
229.896	12497.8
230.357	12251.3
230.818	12083.2
231.28	12426.4
231.741	12958.3
232.202	12943.2
232.663	12447.9
233.124	11811.7
233.585	12013.4
234.046	12913.1
234.507	13724.2
234.967	13827.5
235.428	13269.3
235.889	12743.9
236.349	13412.2
236.81	14307.3
237.271	15052.2
237.731	15294.9
238.191	14917.8
238.652	14066.5
239.112	13675.8
239.572	14609.1
240.033	15476.1
240.493	14981.9
240.953	13621.7
241.413	12509.5
241.873	12694.8
242.333	13067.8
242.793	13561.4
243.253	14454.4
243.712	15415.1
244.172	15667.2
244.632	16254
245.092	16974.1
245.551	18426.4
246.011	19986.1
246.47	20123.8
246.93	19327.3
247.389	19636.7
247.848	21713.5
248.308	24120.9
248.767	26072.6
249.226	25967.2
249.685	23649.8
250.144	22289.6
250.603	23307.8
251.062	25305.9
251.521	26476
251.98	27304.4
252.439	27354.4
252.897	26722.3
253.356	26361.9
253.815	26716.3
254.273	26624.3
254.732	26736.8
255.19	25952.4
255.649	25096.6
256.107	24267
256.566	24614.4
257.024	24785.4
257.482	24631.9
257.94	24312.6
258.398	25052.2
258.856	25109.9
259.315	24843.4
259.772	25227
260.23	26475.1
260.688	26471.3
261.146	25440.7
261.604	24558.2
262.062	24216.7
262.519	23735.5
262.977	23014.2
263.434	22774.5
263.892	22878.7
264.349	21298.4
264.807	19821.7
265.264	18725
265.721	18795
266.179	19067.6
266.636	18219.4
267.093	16607.9
267.55	15756.9
268.007	15774.5
268.464	15934.9
268.921	15856.3
269.378	16277.6
269.835	16218.9
270.291	15257.6
270.748	14167.4
271.205	13916.6
271.661	14290.7
272.118	14327.2
272.574	13573
273.031	12743.4
273.487	11873.9
273.944	11094.1
274.4	10538.3
274.856	10405.1
275.312	10101.9
275.768	9474.6
276.225	8892.9
276.681	8611.9
277.137	8522.5
277.593	8495.4
278.048	8686
278.504	8689.1
278.96	8522.4
279.416	8381.3
279.871	8242
280.327	8116.8
280.783	8056
281.238	8068.2
281.694	8097.8
282.149	8053.5
282.604	7727
283.06	7362.1
283.515	7152.8
283.97	6868.7
284.425	6711.6
284.88	6668
285.335	6522.4
285.79	6230.1
286.245	5831.6
286.7	5497.2
287.155	5306.4
287.61	5261
288.064	5143.1
288.519	4983.4
288.974	4725.7
289.428	4463.9
289.883	4314
290.337	4377.4
290.792	4394.3
291.246	4330.1
291.7	4362.8
292.155	4337.9
292.609	4268.7
293.063	4047.9
293.517	3899.7
293.971	3864.2
294.425	3893.6
294.879	3858.7
295.333	3814.5
295.787	3581.2
296.241	3278.5
296.694	3087.1
297.148	2943.9
297.602	2731.2
298.055	2588.1
298.509	2484.1
298.962	2311.6
299.416	2087.8
299.869	1894.9
300.322	1716.2
300.775	1641.5
301.229	1505.6
301.682	1357.7
302.135	1211.1
302.588	1105.5
303.041	1017.2
303.494	934.4
303.947	876.5
304.4	810.9
304.852	777.1
305.305	757.8
305.758	737.2
306.21	714.3
306.663	730.2
307.115	697.1
307.568	709.2
308.02	692.7
308.473	656.7
308.925	653.1
309.377	615.2
309.829	591.3
310.282	561.8
310.734	531.5
311.186	518
311.638	488.5
312.09	461.5
312.542	444.5
312.993	399.7
313.445	394.9
313.897	372.2
314.349	357.6
314.8	331.1
315.252	313.4
315.703	277.4
316.155	285.1
316.606	255.3
317.058	247.3
317.509	230.2
317.96	211.6
318.411	195.8
318.863	202.3
319.314	178.9
319.765	173.2
320.216	174.8
320.667	147.9
321.117	137.6
321.568	146
322.019	150
322.47	143.6
322.921	133
323.371	119.1
323.822	113.6
324.272	119
324.723	113.2
325.173	98
325.623	102.4
326.074	84.4
326.524	68.7
326.974	69.1
327.424	66.6
327.874	74.9
328.325	63.1
328.775	76.3
329.224	98.3
329.674	86.7
330.124	64.4
330.574	59.8
331.024	60.1
331.473	40.6
331.923	46.8
332.373	33.4
332.822	41.8
333.272	41.6
333.721	46.1
334.17	44.3
334.62	36.5
335.069	33.6
335.518	31.9
335.967	41.7
336.416	33.6
336.865	33.4
337.314	25.5
337.763	32.9
338.212	37.6
338.661	28.7
339.11	29.3
339.558	22.7
340.007	31.6
340.456	28.8
340.904	27.4
341.353	21.2
341.801	19.7
342.25	21.8
342.698	23.5
343.146	18.2
343.595	24.5
344.043	29.1
344.491	23.7
344.939	20.8
345.387	23
345.835	24
346.283	12.7
346.731	20.5
347.179	16.7
347.626	16.4
348.074	24.3
348.522	17.6
348.969	2.7
349.417	11.3
349.865	18.3
350.312	17.2
350.759	19.2
351.207	16.5
351.654	20
352.101	14.4
352.548	15.3
352.996	11.5
353.443	16.6
353.89	23.4
354.337	17.2
354.784	15.3
355.231	16.9
355.677	17.4
356.124	14.2
356.571	14.5
357.018	17.3
357.464	18.5
357.911	16.7
358.357	15.1
358.804	18.8
359.25	22
359.696	14.2
360.143	16.4
360.589	22.5
361.035	23.5
361.481	16
361.927	7.2
362.373	15.3
362.819	15.6
363.265	18.4
363.711	18.9
364.157	17
364.603	18.9
365.048	14.5
365.494	14.7
365.94	14.6
366.385	12.9
366.831	14.9
367.276	9.5
367.722	8.2
368.167	11.2
368.612	20.3
369.057	23.2
369.503	13
369.948	13.3
370.393	7
370.838	9.5
371.283	8.1
371.728	12.9
372.173	19.3
372.617	16.7
373.062	16
373.507	11.5
373.951	14
374.396	20.1
374.841	10.4
375.285	9.3
375.729	11.2
376.174	12.8
376.618	11.4
377.062	11.6
377.507	14.6
377.951	11.8
378.395	14
378.839	15.6
379.283	13
379.727	14.3
380.171	6.6
380.615	18.4
381.059	11.9
381.502	17
381.946	26.3
382.39	12.5
382.833	9.6
383.277	23.2
383.72	16.6
384.164	12.2
384.607	15.1
385.05	14
385.494	13.4
385.937	24
386.38	14.6
386.823	12
387.266	7.6
387.709	19.5
388.152	16.7
388.595	20.4
389.038	10.6
389.481	12.4
389.923	13.6
390.366	18.9
390.809	7.6
391.251	11.9
391.694	12.7
392.136	11.6
392.579	23
393.021	12.8
393.463	13.5
393.906	21.6
394.348	15.9
394.79	19.1
395.232	22.4
395.674	11.5
396.116	4.2
396.558	19
397	20
397.442	6.3
397.884	18.4
398.325	11.2
398.767	11.1
399.209	10.4
399.65	16.1
400.092	18.3
400.533	23.3
400.974	18.8
401.416	15.9
401.857	9.8
402.298	13.9
402.74	21.6
403.181	17.6
403.622	8
404.063	15.2
404.504	8.8
404.945	12.9
405.386	19.7
405.826	19.7
406.267	17.5
406.708	10.2
407.149	17.3
407.589	11.4
408.03	19
408.47	14.3
408.911	18.3
409.351	7.1
409.791	7.8
410.232	12.2
410.672	10
411.112	17.2
411.552	11.6
411.992	19.1
412.432	11.6
412.872	9.7
413.312	17.7
413.752	13.2
414.192	7.9
414.632	8.1
415.071	9.2
415.511	19.6
415.951	16
416.39	12.9
416.83	16.6
417.269	22.5
417.708	13.1
418.148	16.3
418.587	18.9
419.026	9
419.465	14.5
419.904	16.2
420.344	10.2
420.783	21.5
421.221	12
421.66	22.2
422.099	10
422.538	17.8
422.977	11.8
423.415	12.8
423.854	18.4
424.293	10.8
424.731	19.2
425.17	25.7
425.608	14.8
426.046	18.4
426.485	17.6
426.923	26.3
427.361	7.9
427.799	17
428.237	7.9
428.675	22.7
429.113	17.8
429.551	24.4
429.989	9.9
430.427	20.3
430.865	4.9
431.303	6.6
431.74	15.4
432.178	8.1
432.615	13.4
433.053	16.8
433.49	4.1
433.928	20.1
434.365	17.8
434.802	5.2
435.24	13.1
435.677	15.5
436.114	24
436.551	17.4
436.988	19.8
437.425	21.4
437.862	12.4
438.299	11.5
438.736	22
439.172	15.9
439.609	18.7
440.046	19
440.482	11.4
440.919	11.8
441.355	19.3
441.792	19.9
442.228	10.8
442.665	15
443.101	15.2
443.537	4.2
443.973	10
444.409	11
444.845	10.8
445.281	7.3
445.717	15.6
446.153	9.3
446.589	12.1
447.025	14.7
447.461	14.6
447.896	8.1
448.332	12.4
448.768	11.6
449.203	11
449.639	15.6
450.074	11.5
450.509	21.1
450.945	15.8
451.38	20
451.815	14.2
452.25	15.7
452.685	19.1
453.12	17.9
453.555	28.3
453.99	18.9
454.425	22.5
454.86	19.8
455.295	22
455.73	20.3
456.164	13
456.599	1.6
457.033	18.4
457.468	16.9
457.902	9.7
458.337	19.3
458.771	21
459.205	9.4
459.64	14.9
460.074	8
460.508	6.4
460.942	11.6
461.376	15.4
461.81	14.9
462.244	7.3
462.678	10.3
463.112	9.5
463.545	12.6
463.979	10.7
464.413	21.9
464.846	9.8
465.28	9.6
465.713	17
466.147	14.2
466.58	8.7
467.014	15.8
467.447	20.3
467.88	11.8
468.313	23.3
468.746	9.5
469.179	17.2
469.612	19.4
470.045	23.4
470.478	13
470.911	14.3
471.344	14
471.777	19.7
472.209	22.5
472.642	24.7
473.074	13.3
473.507	21.5
473.939	21.8
474.372	18.5
474.804	12.1
475.236	17.5
475.669	24.2
476.101	21
476.533	15.3
476.965	20.9
477.397	13.7
477.829	22.6
478.261	14
478.693	18.4
479.125	23.8
479.557	18.7
479.988	16.2
480.42	13.6
480.852	18.1
481.283	14.9
481.715	19.9
482.146	16.5
482.577	26.5
483.009	19.9
483.44	10.8
483.871	23.1
484.302	19.3
484.734	22.5
485.165	13.2
485.596	25.3
486.027	23.2
486.457	12.1
486.888	23
487.319	22.6
487.75	23.1
488.181	16.2
488.611	16.5
489.042	20.9
489.472	22.1
489.903	15.6
490.333	23.4
490.764	16.9
491.194	3.5
491.624	17
492.054	12.5
492.484	4.6
492.915	15.6
493.345	13.7
493.775	14.7
494.204	17.8
494.634	10.7
495.064	9.5
495.494	21
495.924	13.7
496.353	16.6
496.783	10.2
497.212	19
497.642	11.9
498.071	18.8
498.501	24.9
498.93	16.7
499.359	20.9
499.789	4.7
500.218	9.1
500.647	15.2
501.076	15.9
501.505	10.6
501.934	14.4
502.363	11.1
502.792	18.1
503.221	7.6
503.649	14.3
504.078	8.9
504.507	15
504.935	5.8
505.364	10.1
505.792	14
506.221	9
506.649	9.1
507.077	18.6
507.506	12
507.934	15.4
508.362	24.8
508.79	20
509.218	12.5
509.646	14.2
510.074	23.2
510.502	6.2
510.93	3
511.357	8.9
511.785	1
512.213	5.2
512.64	11.9
513.068	14.1
513.496	12.7
513.923	8.4
514.35	6
514.778	5.1
515.205	23.4
515.632	11.8
516.059	10.9
516.486	8.6
516.914	5.1
517.341	12.6
517.768	10.2
518.194	14.1
518.621	15.8
519.048	15.6
519.475	3.8
519.902	5.8
520.328	3.8
520.755	10.6
521.181	11.1
521.608	12.8
522.034	10.4
522.461	15.3
522.887	11.5
523.313	4.4
523.739	17
524.165	13.5
524.592	7.7
525.018	7.5
525.444	6.5
525.869	15
526.295	18.5
526.721	12.2
527.147	8.2
527.573	10.6
527.998	15
528.424	4
528.849	7.8
529.275	13.2
529.7	4.4
530.126	13.5
530.551	10.6
530.976	16.5
531.402	12
531.827	18.2
532.252	5.3
532.677	15
533.102	6.7
533.527	15.5
533.952	18.7
534.377	15.3
534.801	10.7
535.226	10.1
535.651	8.2
536.076	12.2
536.5	12.5
536.925	8.9
537.349	21.4
537.773	8.3
538.198	15.1
538.622	15.3
539.046	-0.2
539.471	7.4
539.895	13.1
540.319	8.3
540.743	6.4
541.167	17.9
541.591	3.4
542.015	9.3
542.438	17.3
542.862	14.6
543.286	17
543.71	-3
544.133	17.8
544.557	7.7
544.98	13.3
545.404	12.1
545.827	16.7
546.25	9.1
546.674	15
547.097	11.5
547.52	8.5
547.943	8
548.366	23.8
548.789	19.2
549.212	16.8
549.635	14
550.058	9.3
550.481	13.4
550.903	23.1
551.326	20.1
551.749	7.1
552.171	13.7
552.594	13.2
553.016	3.9
553.438	11.3
553.861	17.2
554.283	16.7
554.705	5.9
555.128	9.1
555.55	7.5
555.972	2.9
556.394	9.5
556.816	10.7
557.238	17.8
557.659	7.4
558.081	13.6
558.503	15.4
558.925	8.7
559.346	14.6
559.768	15.4
560.189	12.5
560.611	18
561.032	13.1
561.454	17
561.875	16.6
562.296	13.5
562.718	12.4
563.139	8.1
563.56	8.1
563.981	4.8
564.402	12.4
564.823	10.8
565.244	4.4
565.664	7.5
566.085	17.6
566.506	17.5
566.927	7.6
567.347	8.2
567.768	7.7
568.188	17.1
568.609	22.2
569.029	11.3
569.449	13.9
569.87	7.2
570.29	11.4
570.71	10.9
571.13	8.5
571.55	15.8
571.97	13.1
572.39	15.7
572.81	7.8
573.23	10.4
573.65	-5.2
574.069	19.3
574.489	11.9
574.909	8
575.328	11.5
575.748	2.9
576.167	11.8
576.587	6.1
577.006	11.3
577.425	13.6
577.844	11.1
578.264	14.9
578.683	8.5
579.102	14.4
579.521	18.4
579.94	4.4
580.359	7.2
580.778	13.4
581.196	19.7
581.615	8.7
582.034	17.8
582.452	11.1
582.871	12.2
583.29	14
583.708	14
584.126	27.3
584.545	13.7
584.963	12.4
585.381	18.2
585.8	14.6
586.218	7.7
586.636	5.4
587.054	16
587.472	13.2
587.89	13.2
588.308	16.1
588.725	17.6
589.143	6.5
589.561	6.5
589.979	13.4
590.396	6.8
590.814	1.3
591.231	16.9
591.649	13.8
592.066	6
592.483	18.4
592.901	9
593.318	12.3
593.735	3.1
594.152	18.2
594.569	10.5
594.986	19.6
595.403	11.9
595.82	13.1
596.237	10.8
596.654	16.3
597.07	-2
597.487	18.3
597.904	13.8
598.32	7.7
598.737	10.3
599.153	9.9
599.57	3.1
599.986	16.6
600.402	0
600.818	9.2
601.235	11.5
601.651	7.1
602.067	13.8
602.483	13.3
602.899	3.2
603.315	14
603.73	9
604.146	14.7
604.562	18.9
604.978	16.4
605.393	20.8
605.809	19.7
606.224	6.6
606.64	16.8
607.055	12.1
607.471	9.5
607.886	17.2
608.301	1.9
608.716	15.5
609.131	6.1
609.547	7.4
609.962	11
610.377	13.8
610.791	14.6
611.206	10.5
611.621	14.2
612.036	7.3
612.451	8.1
612.865	-3.3
613.28	13.4
613.694	10.9
614.109	11.6
614.523	12.9
614.938	3.7
615.352	13.1
615.766	11.4
616.18	20.6
616.595	12.3
617.009	25.7
617.423	21.1
617.837	18.4
618.251	9
618.664	29.8
619.078	12.6
619.492	14
619.906	14.4
620.319	10.2
620.733	19
621.146	10.3
621.56	24.4
621.973	16.2
622.387	14.8
622.8	17.2
623.213	15.1
623.627	16.7
624.04	25
624.453	23.6
624.866	20.4
625.279	25.7
625.692	26.7
626.105	20.4
626.518	20.6
626.93	20.1
627.343	33.3
627.756	24.5
628.168	28.4
628.581	34.5
628.993	34.4
629.406	32.9
629.818	34.3
630.231	29.5
630.643	39
631.055	38.5
631.467	42
631.879	45
632.291	31.6
632.703	42.9
633.115	51.8
633.527	60.1
633.939	58.9
634.351	56.7
634.763	68.7
635.174	66.2
635.586	65.9
635.997	75.9
636.409	86.5
636.82	88.8
637.232	90.2
637.643	91.9
638.054	93.4
638.466	95.9
638.877	92.3
639.288	102.8
639.699	108.1
640.11	93.5
640.521	103.7
640.932	102.6
641.343	109.1
641.753	98.8
642.164	112.6
642.575	118.2
642.986	123.9
643.396	121.1
643.807	126.8
644.217	123.6
644.627	125.3
645.038	121.4
645.448	119.3
645.858	120.5
646.269	112.1
646.679	116.9
647.089	114.4
647.499	106.6
647.909	110
648.319	97.1
648.728	98.4
649.138	89.7
649.548	92
649.958	85.7
650.367	80
650.777	80.3
651.186	90.3
651.596	74.2
652.005	74.2
652.415	66.5
652.824	72.2
653.233	59.9
653.642	59.7
654.052	64
654.461	67.7
654.87	65.9
655.279	58.5
655.688	64.8
656.096	51.5
656.505	54.5
656.914	63.5
657.323	49.8
657.731	51.8
658.14	49.2
658.548	63.2
658.957	60.7
659.365	56.8
659.774	64.4
660.182	54.7
660.59	58.1
660.998	60.5
661.407	62
661.815	60.2
662.223	57.2
662.631	47.1
663.039	52.1
663.446	60.9
663.854	47.8
664.262	42.7
664.67	52.8
665.077	36.2
665.485	41.5
665.892	43
666.3	36.9
666.707	48.8
667.115	45.2
667.522	39.7
667.929	34.1
668.337	33.7
668.744	38.4
669.151	31.8
669.558	25.7
669.965	35.9
670.372	21.5
670.779	21.6
671.185	26.8
671.592	23.7
671.999	23.9
672.405	26.5
672.812	20.6
673.219	18.3
673.625	24.8
674.032	12.4
674.438	14.9
674.844	14.6
675.25	17.6
675.657	20.9
676.063	25.2
676.469	4.6
676.875	7.9
677.281	17.3
677.687	13.3
678.093	20.3
678.499	5.6
678.904	18.5
679.31	7.6
679.716	7.6
680.121	4.8
680.527	5.2
680.932	13.2
681.338	12.6
681.743	7.7
682.148	-2.8
682.554	11.6
682.959	6.9
683.364	13.7
683.769	6.6
684.174	12.4
684.579	9.6
684.984	9.2
685.389	-1.4
685.794	6.9
686.199	6.9
686.603	10.6
687.008	6.4
687.413	7.4
687.817	19.1
688.222	12.4
688.626	6.6
689.03	0.8
689.435	2.3
689.839	0.5
690.243	8.3
690.647	11.1
691.051	12.9
691.456	8.1
691.859	12.1
692.263	12.4
692.667	9.2
693.071	5.2
693.475	9.9
693.879	11
694.282	4.5
694.686	15.3
695.089	15.1
695.493	0.8
695.896	5.1
696.3	13.8
696.703	7.4
697.106	12.8
697.509	12.2
697.913	6.4
698.316	13.4
698.719	11
699.122	9.4
699.525	13.3
699.928	8.1
700.33	6.5
700.733	5.9
701.136	1.8
701.539	11.4
701.941	7.8
702.344	18.7
702.746	5.7
703.149	4.4
703.551	18.5
703.953	15.2
704.356	11.3
704.758	-0.9
705.16	9.6
705.562	12.5
705.964	4.8
706.366	9.8
706.768	5.4
707.17	11.1
707.572	12.2
707.973	6.9
708.375	8.7
708.777	9.5
709.178	8.1
709.58	13.3
709.981	12.2
710.383	10.6
710.784	5.6
711.186	8.2
711.587	6.7
711.988	4.6
712.389	8.4
712.79	13.3
713.191	7.8
713.592	2.7
713.993	14.9
714.394	18.6
714.795	9.8
715.196	2.5
715.596	14.9
715.997	9.7
716.398	14.6
716.798	3.6
717.199	5.4
717.599	2.9
718	7.1
718.4	12.3
718.8	7.2
719.2	11.4
719.6	8
720.001	3.6
720.401	2.8
720.801	-1.9
721.201	1.9
721.6	14.7
722	18.7
722.4	11.4
722.8	15.7
723.199	8
723.599	7.7
723.998	3.7
724.398	4.2
724.797	5.7
725.197	7
725.596	17.4
725.995	16.7
726.394	9.5
726.794	13.3
727.193	11.1
727.592	14.4
727.991	11.4
728.39	-3.9
728.789	13.9
729.187	12.2
729.586	12.7
729.985	14.1
730.383	6.4
730.782	6.1
731.181	7.3
731.579	10.2
731.977	22.5
732.376	6.2
732.774	13.7
733.172	13.3
733.571	10.3
733.969	26.3
734.367	13.8
734.765	11.7
735.163	17.3
735.561	10.2
735.959	21.9
736.356	16.2
736.754	3.3
737.152	11.2
737.55	7.5
737.947	16.8
738.345	22.9
738.742	13.7
739.14	6.1
739.537	15.9
739.934	14.8
740.331	7.8
740.729	19.5
741.126	12.5
741.523	20.3
741.92	10.3
742.317	24.7
742.714	20.3
743.111	18.8
743.507	17.2
743.904	15.7
744.301	16.6
744.697	17.9
745.094	28.7
745.491	19.8
745.887	20.3
746.283	22.4
746.68	15.8
747.076	8.9
747.472	12.3
747.869	13.7
748.265	11.5
748.661	19.8
749.057	16.6
749.453	16.3
749.849	19.6
750.244	17.5
750.64	10.5
751.036	17.9
751.432	26
751.827	18.9
752.223	17.5
752.618	31.7
753.014	34.2
753.409	24.3
753.805	19.2
754.2	11.2
754.595	28.5
754.99	19
755.385	16.2
755.78	24.2
756.175	21.5
756.57	25
756.965	35.1
757.36	29.6
757.755	25.8
758.15	29.7
758.544	41.8
758.939	37.4
759.334	46.6
759.728	44.3
760.122	46.8
760.517	54.5
760.911	51
761.306	48.5
761.7	49.7
762.094	43.6
762.488	48.6
762.882	35.9
763.276	43.9
763.67	44.7
764.064	41
764.458	38.6
764.852	45.6
765.245	50
765.639	51
766.033	53
766.426	57.8
766.82	68.5
767.213	58.6
767.606	75.2
768	57.6
768.393	54.7
768.786	55.5
769.179	60
769.572	55
769.966	60.9
770.358	60.7
770.751	59.3
771.144	49.6
771.537	58.3
771.93	51.3
772.323	61
772.715	50.4
773.108	50.6
773.5	44.8
773.893	42.1
774.285	52.1
774.678	50.5
775.07	33.7
775.462	35.1
775.854	36.3
776.247	28.5
776.639	30.2
777.031	23.5
777.423	26.7
777.815	27.2
778.207	30.4
778.598	26.9
778.99	31.5
779.382	29.2
779.773	34.7
780.165	41.8
780.557	37.6
780.948	50.9
781.339	49.8
781.731	49.3
782.122	58.8
782.513	53.7
782.905	60.8
783.296	61.4
783.687	65.8
784.078	65.1
784.469	58.8
784.86	63.4
785.251	48
785.641	51.7
786.032	52.9
786.423	54.7
786.813	54.3
787.204	52.5
787.594	50.8
787.985	42
788.375	50.9
788.766	44.7
789.156	38.3
789.546	37.5
789.936	32.6
790.326	32.8
790.717	28.6
791.107	35.2
791.497	28.9
791.886	24
792.276	29.9
792.666	23.1
793.056	26.9
793.445	26.4
793.835	26.9
794.225	21
794.614	32.5
795.004	23
795.393	17.9
795.782	24.7
796.172	26.5
796.561	32.3
796.95	18.1
797.339	21.3
797.728	22.3
798.117	25.4
798.506	21.1
798.895	16.1
799.284	17.2
799.673	16.7
800.061	24.6
800.45	23.2
800.839	22.6
801.227	18
801.616	14.4
802.004	17.9
802.392	11.8
802.781	17.5
803.169	24.2
803.557	19.5
803.945	19.6
804.333	19.6
804.721	19.2
805.109	13.5
805.497	11.3
805.885	8.8
806.273	25.5
806.661	6.5
807.048	16.5
807.436	9.3
807.824	9.9
808.211	14
808.599	17.5
808.986	12.3
809.373	10.5
809.761	9
810.148	13.6
810.535	21.8
810.922	17.1
811.309	16.6
811.696	9.3
812.083	19.6
812.47	14.6
812.857	12.8
813.244	4.8
813.631	11.9
814.017	12.5
814.404	12.2
814.791	19.2
815.177	11.3
815.564	14
815.95	10.1
816.336	2.6
816.723	13.5
817.109	15.9
817.495	17
817.881	12.9
818.267	1.6
818.653	9.1
819.039	12.4
819.425	12.6
819.811	8.1
820.197	10.7
820.582	11.5
820.968	11.3
821.354	6.7
821.739	16.8
822.125	3.7
822.51	0.1
822.895	15.5
823.281	18.2
823.666	16.5
824.051	16.1
824.436	11.2
824.822	0.5
825.207	13.7
825.592	6.6
825.976	5.1
826.361	11.3
826.746	13.9
827.131	10.5
827.516	13
827.9	3.2
828.285	3.8
828.669	7.1
829.054	7.4
829.438	5.8
829.823	20
830.207	0
830.591	-2.4
830.975	10.6
831.36	9.9
831.744	3.2
832.128	11.1
832.512	8.3
832.895	11.6
833.279	7.8
833.663	-0.4
834.047	3.2
834.431	13.7
834.814	19.4
835.198	14.9
835.581	8.9
835.965	5.9
836.348	11.9
836.731	6.5
837.115	14.2
837.498	10.5
837.881	17
838.264	10.7
838.647	16.2
839.03	9.8
839.413	4.1
839.796	11.7
840.179	19.2
840.562	13.3
840.944	17.8
841.327	4.7
841.71	2.1
842.092	3.8
842.475	12.5
842.857	3.8
843.24	8.8
843.622	4.9
844.004	9.9
844.386	16.3
844.769	10.2
845.151	7.4
845.533	0.5
845.915	9.1
846.297	13.4
846.678	12.6
847.06	10.7
847.442	2.7
847.824	6.8
848.205	3.6
848.587	9.8
848.968	8
849.35	17.9
849.731	5.6
850.113	7.7
850.494	3.9
850.875	-4.3
851.256	8.5
851.638	17.1
852.019	6.7
852.4	14.1
852.781	5.7
853.161	6
853.542	16.8
853.923	9.9
854.304	16.8
854.685	3.9
855.065	9.1
855.446	12.1
855.826	15.1
856.207	12.2
856.587	8
856.967	8.1
857.348	2.3
857.728	12.9
858.108	15
858.488	10.3
858.868	13.2
859.248	10.6
859.628	13.2
860.008	9.1
860.388	6.6
860.768	6.2
861.147	5.7
861.527	8.5
861.907	8.1
862.286	16.2
862.666	12.7
863.045	18.9
863.424	5.6
863.804	9.4
864.183	13.1
864.562	13
864.941	15
865.32	20.1
865.699	5.4
866.078	7.7
866.457	21.8
866.836	14.8
867.215	13.1
867.594	5.9
867.972	2.2
868.351	18
868.729	9.5
869.108	16.2
869.486	7.7
869.865	5.4
870.243	13.7
870.621	1.3
871	7.8
871.378	9.1
871.756	15.2
872.134	10.3
872.512	14.5
872.89	13.1
873.268	5.6
873.646	0.8
874.023	12.8
874.401	7
874.779	6.5
875.156	3.8
875.534	11.1
875.911	2.1
876.289	7.4
876.666	19.9
877.043	15.2
877.421	9.7
877.798	13.7
878.175	3.1
878.552	5.9
878.929	5.9
879.306	8.4
879.683	8.1
880.06	11.1
880.437	6.9
880.813	9.5
881.19	20.8
881.567	15.7
881.943	4.4
882.32	10.3
882.696	6.4
883.073	22.5
883.449	7.3
883.825	11
884.202	8.9
884.578	6.4
884.954	11.1
885.33	1.1
885.706	11.7
886.082	0.9
886.458	12.5
886.834	15.9
887.209	3.6
887.585	22.1
887.961	5.6
888.336	28.7
888.712	11.4
889.087	8.8
889.463	7.3
889.838	5
890.213	13.4
890.589	5
890.964	-0.8
891.339	10.9
891.714	14.1
892.089	9.3
892.464	20.5
892.839	11.5
893.214	5.1
893.589	9.3
893.963	10.3
894.338	7.1
894.713	6.5
895.087	19.5
895.462	13.3
895.836	11.2
896.211	13.7
896.585	11.6
896.959	7.3
897.334	3.3
897.708	13.3
898.082	6.9
898.456	10.6
898.83	13.2
899.204	12.9
899.578	16.8
899.952	18.4
900.325	5
900.699	14.4
901.073	11.5
901.446	9.3
901.82	13.7
902.193	9.2
902.567	7.3
902.94	17
903.313	17.2
903.687	12.3
904.06	16
904.433	23.6
904.806	15.9
905.179	17.7
905.552	19.7
905.925	25.2
906.298	19.4
906.671	27
907.043	20.3
907.416	19.7
907.789	23.2
908.161	23.1
908.534	14.9
908.906	17.5
909.279	10.9
909.651	22.2
910.023	19.4
910.396	12.6
910.768	30.9
911.14	19.3
911.512	17.1
911.884	29.8
912.256	14.4
912.628	16.9
912.999	17.7
913.371	23.9
913.743	15.2
914.115	12.1
914.486	13.9
914.858	22.6
915.229	29.9
915.601	26.7
915.972	12.1
916.343	17.8
916.715	15.4
917.086	12
917.457	20
917.828	25.1
918.199	27.2
918.57	19.9
918.941	21.3
919.312	19
919.682	16.6
920.053	25.1
920.424	23.1
920.794	26.9
921.165	12.4
921.536	25.7
921.906	20.6
922.276	29.2
922.647	12.6
923.017	25.7
923.387	22.1
923.757	34
924.127	9.8
924.497	28.1
924.867	23.6
925.237	21.3
925.607	26.4
925.977	22.9
926.347	22.8
926.716	21.8
927.086	17.7
927.456	22.9
927.825	21.4
928.195	22.2
928.564	22.2
928.933	16.9
929.303	20.9
929.672	13.1
930.041	19.2
930.41	21.5
930.779	19.7
931.148	24.6
931.517	22.3
931.886	29.4
932.255	25.2
932.624	11.2
932.993	19.9
933.361	25.7
933.73	25.3
934.098	32.1
934.467	21.7
934.835	22.3
935.204	32.9
935.572	33.7
935.94	30.8
936.308	18.7
936.677	22
937.045	24.7
937.413	24.2
937.781	27.3
938.149	25.9
938.516	24.1
938.884	10.7
939.252	28.5
939.62	24.1
939.987	25.8
940.355	19.1
940.722	17.1
941.09	18.3
941.457	13.7
941.825	19.1
942.192	35.9
942.559	24
942.926	16.7
943.293	21.8
943.66	22.1
944.027	22.7
944.394	29.8
944.761	20.7
945.128	15.5
945.495	21.1
945.861	25.2
946.228	17.9
946.595	17.4
946.961	16
947.328	17.5
947.694	12.3
948.06	35.4
948.427	20.5
948.793	17.8
949.159	20.5
949.525	22
949.891	24.7
950.257	13.1
950.623	20.1
950.989	18.4
951.355	25.2
951.721	18.9
952.087	19.1
952.452	9.7
952.818	19.2
953.183	12.4
953.549	12.4
953.914	20.4
954.28	14.5
954.645	26.9
955.01	15.5
955.375	20.9
955.741	15.7
956.106	17.1
956.471	19.4
956.836	16.2
957.201	27.8
957.566	19
957.93	19.2
958.295	16.7
958.66	17.4
959.024	25.2
959.389	20.8
959.753	26.3
960.118	19.8
960.482	15.7
960.847	17.8
961.211	23.4
961.575	20.8
961.939	8.8
962.303	16.7
962.667	14.8
963.031	12.8
963.395	13.6
963.759	11.5
964.123	15.3
964.487	18.6
964.851	11.9
965.214	19.7
965.578	13.2
965.941	15.1
966.305	14.6
966.668	8.1
967.032	20.8
967.395	11.8
967.758	17.9
968.121	7.7
968.484	14.9
968.847	14.8
969.21	8.8
969.573	18.8
969.936	19.3
970.299	10.1
970.662	27.2
971.025	15.5
971.387	10.4
971.75	13.4
972.112	21
972.475	6.9
972.837	18.7
973.2	14.6
973.562	11.9
973.924	16.1
974.286	16.5
974.649	1.7
975.011	20.7
975.373	18.4
975.735	15.3
976.097	11.6
976.458	23.8
976.82	5.2
977.182	15
977.544	17.5
977.905	16.3
978.267	20.9
978.628	9.8
978.99	13.3
979.351	9.4
979.712	15.3
980.074	4
980.435	12.9
980.796	22.5
981.157	11
981.518	15.2
981.879	5.7
982.24	11.2
982.601	15.2
982.962	7.3
983.323	11.3
983.683	8.9
984.044	6.2
984.404	-0.7
984.765	9.1
985.125	19.7
985.486	13.1
985.846	17.3
986.206	13.6
986.567	9.5
986.927	10.5
987.287	11.4
987.647	11
988.007	7.8
988.367	9.8
988.727	9.5
989.087	13
989.446	6.3
989.806	10.9
990.166	13.2
990.525	18.3
990.885	12
991.244	20.1
991.604	6.1
991.963	12.4
992.322	13.8
992.682	12.9
993.041	6.4
993.4	12.1
993.759	12.6
994.118	18.8
994.477	18
994.836	20.6
995.195	7.5
995.553	14.5
995.912	16.9
996.271	8.3
996.629	11.5
996.988	11.2
997.346	12.3
997.705	6.3
998.063	1.3
998.422	15.1
998.78	16.1
999.138	17.6
999.496	12.1
999.854	7.8
1000.212	7.2
1000.57	21.5
1000.928	18.7
1001.286	9.3
1001.644	16.1
1002.001	8.9
1002.359	17
1002.717	1.4
1003.074	1.9
1003.432	12.6
1003.789	8.3
1004.147	4
1004.504	4.2
1004.861	5.4
1005.218	10.7
1005.576	12.9
1005.933	13.9
1006.29	9.4
1006.647	11
1007.004	7.7
1007.36	9.4
1007.717	9.3
1008.074	8.2
1008.431	10.6
1008.787	4.2
1009.144	12.5
1009.5	9.8
1009.857	12.3
1010.213	0.1
1010.569	6.2
1010.926	-0.5
1011.282	11
1011.638	13.5
1011.994	7.7
1012.35	8.1
1012.706	11.6
1013.062	15.2
1013.418	8.1
1013.774	7.8
1014.13	15
1014.485	17.5
1014.841	15.6
1015.197	11
1015.552	9.6
1015.907	16.2
1016.263	13.2
1016.618	15.1
1016.974	11.1
1017.329	15.3
1017.684	13.2
1018.039	3.1
1018.394	14.5
1018.749	4.8
1019.104	18.6
1019.459	12.9
1019.814	9.9
1020.168	18.6
1020.523	4.8
1020.878	12.6
1021.232	12.1
1021.587	3.7
1021.941	7.2
1022.296	11.5
1022.65	7.6
1023.004	10.7
1023.359	15.2
1023.713	11.8
1024.067	12.7
1024.421	2.9
1024.775	9.9
1025.129	13
1025.483	18.9
1025.837	5.3
1026.19	14.3
1026.544	6.6
1026.898	10.5
1027.251	10.3
1027.605	7.8
1027.958	12.3
1028.312	8.9
1028.665	11
1029.018	10.5
1029.372	6.9
1029.725	16.7
1030.078	10
1030.431	8.7
1030.784	3.5
1031.137	17.3
1031.49	22.5
1031.843	3
1032.195	9.7
1032.548	10.2
1032.901	11
1033.253	9
1033.606	16
1033.958	10.3
1034.311	12.7
1034.663	18.8
1035.016	11.2
1035.368	12.4
1035.72	17.6
1036.072	9
1036.424	8.9
1036.776	8.7
1037.128	13.1
1037.48	19
