Data from 0.1bar_Subt2__0__18-21-42-499.txt Node

Date: Thu Jan 06 18:21:42 CET 2022
User: fsatto
Spectrometer: OFX01956
Trigger mode: 0
Integration Time (sec): 1.000000E-2
Scans to average: 10
Nonlinearity correction enabled: false
Boxcar width: 0
Storing dark spectrum: false
XAxis mode: Wavelengths
Number of Pixels in Spectrum: 2136
>>>>>Begin Spectral Data<<<<<
158.236	-8.3
158.705	-15.8
159.174	-8.2
159.643	-14
160.112	-10.3
160.582	-10.2
161.051	-12
161.52	-9.9
161.988	-11.6
162.457	-12.3
162.926	-9.8
163.395	-8.8
163.864	-5.9
164.332	-16.2
164.801	-7.6
165.269	-11.7
165.738	-12.9
166.206	-12.1
166.675	-7.7
167.143	-5.8
167.612	-11.8
168.08	-11.3
168.548	-14.6
169.016	-9.4
169.484	-10.4
169.952	-13.9
170.42	-17
170.888	-6.4
171.356	-8
171.824	-10.2
172.292	-18.2
172.759	-19.8
173.227	-15.2
173.695	-10.3
174.162	-6.3
174.63	-8.6
175.097	-20.1
175.565	-14.1
176.032	-17
176.499	-15.5
176.967	-10.6
177.434	-16.3
177.901	-5.4
178.368	-19.7
178.835	-13
179.302	-10
179.769	-11
180.236	-18.5
180.703	-15.9
181.17	-16.4
181.637	-7.8
182.103	-14
182.57	-10.7
183.036	-8.6
183.503	-9.3
183.97	-12.1
184.436	-10.9
184.902	-7.4
185.369	-9.7
185.835	-0.6
186.301	-9.8
186.767	-11.4
187.234	-11.7
187.7	-16.7
188.166	-18
188.632	-13.6
189.098	-17.4
189.563	-16.9
190.029	-8
190.495	-17.5
190.961	-12.2
191.426	-19.1
191.892	-12.8
192.358	-15.9
192.823	-9.6
193.289	-15.6
193.754	-12.1
194.219	-15.1
194.685	-14.1
195.15	-14.7
195.615	-8.6
196.08	-12.5
196.545	-15.3
197.01	-10.3
197.475	-15
197.94	-6.6
198.405	-6.5
198.87	-9.9
199.335	-8.1
199.8	-9.9
200.264	-8.1
200.729	-4.5
201.193	-9.4
201.658	-0.2
202.122	-5
202.587	4.1
203.051	-3.7
203.516	-7.9
203.98	-7.3
204.444	-2.9
204.908	-8.5
205.372	-8.3
205.836	0.6
206.3	0.3
206.764	4.3
207.228	12.1
207.692	-3.7
208.156	3.7
208.62	3.7
209.083	2.3
209.547	2.2
210.011	4.2
210.474	1.8
210.938	15.4
211.401	9.3
211.864	14.5
212.328	21.5
212.791	13.5
213.254	12
213.717	34.3
214.181	20.2
214.644	24.5
215.107	30.8
215.57	35.4
216.033	54
216.495	59.4
216.958	80.4
217.421	97
217.884	105.7
218.346	134.2
218.809	160.5
219.272	184.7
219.734	194.8
220.196	229.1
220.659	240.7
221.121	268.3
221.584	305.7
222.046	333.9
222.508	365.2
222.97	394.7
223.432	398.6
223.894	478.4
224.356	528.7
224.818	603
225.28	654
225.742	753.9
226.204	870.2
226.665	1023.3
227.127	1122.5
227.589	1195.8
228.05	1282.4
228.512	1384.2
228.973	1457.1
229.435	1490.9
229.896	1520.7
230.357	1638.4
230.818	1806.2
231.28	1930.2
231.741	2084.1
232.202	2145.7
232.663	2166
233.124	2295.1
233.585	2509.3
234.046	2726.6
234.507	2795.2
234.967	2792.6
235.428	2764.5
235.889	2763.4
236.349	2835.8
236.81	3085.7
237.271	3278.3
237.731	3268.3
238.191	3137.8
238.652	3084.2
239.112	3219.2
239.572	3562.5
240.033	3792.4
240.493	3627.3
240.953	3231.9
241.413	2974.7
241.873	3013.1
242.333	3252.1
242.793	3259.4
243.253	3139.8
243.712	2985.5
244.172	2772.8
244.632	2691.9
245.092	2820
245.551	2934.9
246.011	2903.6
246.47	2754.7
246.93	2762.9
247.389	3039.4
247.848	3349.6
248.308	3575.4
248.767	3598.5
249.226	3546.5
249.685	3554.2
250.144	3732.6
250.603	4092.9
251.062	4472.3
251.521	4479.2
251.98	4243.4
252.439	4018.3
252.897	3990.2
253.356	4268.3
253.815	4648.3
254.273	4704.5
254.732	4489.4
255.19	3871.1
255.649	3407.6
256.107	3366.6
256.566	3550.6
257.024	3834.5
257.482	3759
257.94	3444.6
258.398	3417.1
258.856	3525.5
259.315	3594
259.772	3595.2
260.23	3439.3
260.688	3170.9
261.146	2914.8
261.604	2713.8
262.062	2797.2
262.519	2927.6
262.977	3010.2
263.434	2791.3
263.892	2580.5
264.349	2468.6
264.807	2393.6
265.264	2306.5
265.721	2250.6
266.179	2223.8
266.636	2032.8
267.093	1854.3
267.55	1744.7
268.007	1796.8
268.464	1853.8
268.921	1822
269.378	1690
269.835	1602.8
270.291	1607.7
270.748	1541.1
271.205	1535.3
271.661	1544.6
272.118	1471.5
272.574	1462.1
273.031	1457.1
273.487	1397.4
273.944	1339.5
274.4	1351.7
274.856	1378.5
275.312	1298.4
275.768	1233.5
276.225	1210.1
276.681	1197.7
277.137	1151.1
277.593	1088.3
278.048	1046.5
278.504	1006
278.96	949.3
279.416	893
279.871	798.4
280.327	756.4
280.783	746.7
281.238	735.5
281.694	686.1
282.149	658.2
282.604	609
283.06	594.3
283.515	565.3
283.97	527.3
284.425	510.3
284.88	488.3
285.335	464.2
285.79	430.2
286.245	402.3
286.7	413.4
287.155	409.4
287.61	379.9
288.064	364
288.519	361
288.974	347
289.428	319.6
289.883	316.7
290.337	305.9
290.792	308
291.246	290.6
291.7	299.3
292.155	277.9
292.609	244.6
293.063	242
293.517	230.3
293.971	216.3
294.425	205.6
294.879	180.2
295.333	162
295.787	151.8
296.241	141.5
296.694	136.5
297.148	117.7
297.602	107.1
298.055	113.7
298.509	99.8
298.962	75.5
299.416	77.7
299.869	67
300.322	63.1
300.775	54.8
301.229	53
301.682	43.1
302.135	34.9
302.588	23.8
303.041	31.3
303.494	21.5
303.947	22.1
304.4	24.1
304.852	13.2
305.305	23.4
305.758	6.3
306.21	3.7
306.663	9.5
307.115	12.6
307.568	6.1
308.02	0
308.473	9.2
308.925	10.7
309.377	9.1
309.829	3.1
310.282	-7.6
310.734	11.1
311.186	7.5
311.638	2.1
312.09	-1.4
312.542	-6.9
312.993	5.9
313.445	-0.5
313.897	0
314.349	-4.7
314.8	-5.8
315.252	-6.6
315.703	3.7
316.155	-3.4
316.606	-2.9
317.058	-5.9
317.509	-5.6
317.96	-10.6
318.411	-11.6
318.863	2.9
319.314	-3.5
319.765	-0.6
320.216	0.1
320.667	-10.7
321.117	-4.1
321.568	-10.2
322.019	-3
322.47	-3.4
322.921	-11.2
323.371	-13.2
323.822	-21
324.272	-13.8
324.723	-15.3
325.173	-13.1
325.623	-18.3
326.074	-16.5
326.524	-6.3
326.974	-13.6
327.424	-8.1
327.874	1.8
328.325	-17.8
328.775	-12.6
329.224	-6.3
329.674	-6
330.124	-19.6
330.574	-8.8
331.024	-12
331.473	-9.5
331.923	-18.5
332.373	-2.6
332.822	-11.7
333.272	-14.2
333.721	-9.5
334.17	-14
334.62	-10.4
335.069	-5.2
335.518	-9.4
335.967	-3.1
336.416	-10.2
336.865	-9.9
337.314	-8.4
337.763	-1.6
338.212	-4.8
338.661	-7.4
339.11	-10.1
339.558	-2.4
340.007	-10.4
340.456	-7.7
340.904	-11.7
341.353	-2.2
341.801	-12.8
342.25	-21.9
342.698	-16
343.146	-0.4
343.595	-4.3
344.043	-11.6
344.491	-11.2
344.939	-9.2
345.387	-8.1
345.835	-8.9
346.283	-10.6
346.731	5
347.179	-12.2
347.626	-21.8
348.074	-10.2
348.522	-2.9
348.969	-5
349.417	-4.5
349.865	-12.8
350.312	-8.1
350.759	-12.1
351.207	-20.4
351.654	-7.9
352.101	-9.9
352.548	-14
352.996	-13.7
353.443	-0.5
353.89	-8.6
354.337	-16
354.784	-11.4
355.231	-14.5
355.677	-11.8
356.124	-14.5
356.571	-12.9
357.018	-14.5
357.464	-20.3
357.911	-10.2
358.357	-2.5
358.804	-8.2
359.25	-3.6
359.696	-11
360.143	2.7
360.589	-0.9
361.035	-1.5
361.481	-5.7
361.927	-1.4
362.373	-5.6
362.819	-8.9
363.265	-16
363.711	-18
364.157	-9
364.603	-14
365.048	-4.6
365.494	-10.7
365.94	-13
366.385	-21
366.831	-5.1
367.276	-11.5
367.722	-15.6
368.167	-13.4
368.612	-7.7
369.057	-13.8
369.503	-16.3
369.948	-14.2
370.393	-11.6
370.838	-11.7
371.283	-7.7
371.728	-13.7
372.173	-8
372.617	-7.3
373.062	-15.7
373.507	-9
373.951	-9.9
374.396	-1.3
374.841	-14.5
375.285	-10.1
375.729	-12
376.174	-9.4
376.618	-17
377.062	-8.2
377.507	-8.6
377.951	-7.9
378.395	-23
378.839	-2.3
379.283	-17
379.727	-6.2
380.171	-7.2
380.615	-5.6
381.059	-5.2
381.502	-5.2
381.946	-10.3
382.39	-12
382.833	-10.9
383.277	-11.2
383.72	-15.1
384.164	-14.5
384.607	-10
385.05	-7.3
385.494	0.4
385.937	-13.7
386.38	-4.2
386.823	-5.2
387.266	-10.1
387.709	-10.3
388.152	-15.8
388.595	-14.1
389.038	-8.8
389.481	-13.2
389.923	-12.5
390.366	-8.9
390.809	-14.6
391.251	-6.8
391.694	-6.3
392.136	-6.4
392.579	-6.4
393.021	-15.7
393.463	-4.9
393.906	-14.1
394.348	-11.3
394.79	-0.7
395.232	-7.9
395.674	-9.4
396.116	-8.2
396.558	-13.2
397	-2.5
397.442	-12.6
397.884	-11.1
398.325	-4.8
398.767	-0.5
399.209	-7.6
399.65	-5.5
400.092	-14.6
400.533	-13.1
400.974	-22.7
401.416	-19.7
401.857	-4
402.298	-18.9
402.74	-12.9
403.181	-10.4
403.622	-3.6
404.063	0
404.504	-21.3
404.945	-15.4
405.386	-2.2
405.826	-9.5
406.267	-11.6
406.708	-1.4
407.149	-12.9
407.589	-10.5
408.03	-11.4
408.47	-13.9
408.911	-11.6
409.351	-12.8
409.791	-8.2
410.232	-12.8
410.672	-4
411.112	-11.6
411.552	-7.3
411.992	-2.6
412.432	-10.4
412.872	-10.8
413.312	-4.9
413.752	-12.5
414.192	-8.8
414.632	-8
415.071	-15.5
415.511	-7.3
415.951	-11.8
416.39	-8.9
416.83	-11.4
417.269	-7.4
417.708	-3
418.148	-13.1
418.587	-13.8
419.026	-14.5
419.465	-11.6
419.904	-2.4
420.344	-10.5
420.783	-16.3
421.221	-14.4
421.66	-14.4
422.099	-18.7
422.538	-6.2
422.977	-6.9
423.415	-9
423.854	-13.3
424.293	-12
424.731	-13.4
425.17	-16.3
425.608	-9.5
426.046	-18
426.485	-5.9
426.923	-14.4
427.361	-17.3
427.799	-10.8
428.237	-12
428.675	-14.1
429.113	-9.3
429.551	-13.8
429.989	-11.5
430.427	-6.2
430.865	-18.6
431.303	-21.5
431.74	-17.6
432.178	-19.4
432.615	-17.8
433.053	-12.5
433.49	-5
433.928	-5.2
434.365	-3.9
434.802	-12.7
435.24	-7
435.677	-4.9
436.114	-10.6
436.551	-12.3
436.988	1.9
437.425	-8.9
437.862	-6.2
438.299	-20.5
438.736	-7.7
439.172	-11.4
439.609	-17.3
440.046	-18
440.482	-12.6
440.919	-12.3
441.355	-10.6
441.792	-4.9
442.228	-12.7
442.665	-6.3
443.101	-10.7
443.537	-15.5
443.973	-5.3
444.409	-1.9
444.845	-3.6
445.281	-12.6
445.717	-11.8
446.153	-13.5
446.589	-17.4
447.025	-4.8
447.461	-9.9
447.896	-11.6
448.332	2.6
448.768	-13.5
449.203	-14.8
449.639	-19.7
450.074	-4.6
450.509	-14.9
450.945	-10.4
451.38	-5.7
451.815	-18.1
452.25	-10.2
452.685	-11.6
453.12	-17
453.555	-15.6
453.99	-10.7
454.425	-12.4
454.86	-16.6
455.295	-5.1
455.73	-13.7
456.164	-7.8
456.599	-9
457.033	-6.1
457.468	-21.1
457.902	-5.7
458.337	0.9
458.771	-12.5
459.205	-14.6
459.64	-5.7
460.074	-9.5
460.508	-11
460.942	-9
461.376	-16.6
461.81	-14.3
462.244	-9
462.678	-17.2
463.112	-5.9
463.545	-14.5
463.979	-8
464.413	0.6
464.846	-2.9
465.28	-20.4
465.713	-14.6
466.147	-8.2
466.58	-7.3
467.014	-21.8
467.447	-1.7
467.88	-10.2
468.313	-3.6
468.746	-9.9
469.179	-19.3
469.612	-11.9
470.045	-12.9
470.478	-12.5
470.911	-16.9
471.344	1.4
471.777	-9.2
472.209	-5.5
472.642	-11.7
473.074	-16.2
473.507	-2.1
473.939	-17.5
474.372	-5.6
474.804	-4.1
475.236	-5.6
475.669	-3.5
476.101	-5.8
476.533	-10
476.965	-2.4
477.397	-1.7
477.829	-7.7
478.261	-12.6
478.693	-6
479.125	-2.4
479.557	-5.4
479.988	-9.4
480.42	-5.3
480.852	-3.1
481.283	-1
481.715	-9.8
482.146	-1.2
482.577	-7.3
483.009	-9.3
483.44	-4.2
483.871	-20.9
484.302	-7.5
484.734	-4.7
485.165	-11
485.596	-7.5
486.027	-8.6
486.457	-4.5
486.888	-9.6
487.319	-4.8
487.75	-2.5
488.181	-5.9
488.611	-14.1
489.042	-8
489.472	-10.8
489.903	-12.2
490.333	-9.3
490.764	-6.3
491.194	-11.7
491.624	-0.3
492.054	-1.4
492.484	-3.3
492.915	0.8
493.345	4.8
493.775	-16.6
494.204	-7.8
494.634	-9.2
495.064	-7.9
495.494	-4.3
495.924	-5.2
496.353	-18.8
496.783	-8.6
497.212	-8.3
497.642	-9
498.071	-9.6
498.501	-11.2
498.93	-12.6
499.359	-8.3
499.789	-17.5
500.218	-10.8
500.647	-3.8
501.076	-12.4
501.505	-3.1
501.934	-3
502.363	-7.9
502.792	-8.9
503.221	-16.8
503.649	-13.7
504.078	-4.2
504.507	-4.9
504.935	-14.8
505.364	-8
505.792	0
506.221	-17.4
506.649	-11.3
507.077	-12.3
507.506	-12.4
507.934	-18.3
508.362	-12.1
508.79	-4.8
509.218	-15.3
509.646	-10.6
510.074	-6.9
510.502	-13.7
510.93	-17.9
511.357	-13.8
511.785	-13.4
512.213	-0.1
512.64	-10.7
513.068	-11.6
513.496	-7.4
513.923	-4.4
514.35	-15.9
514.778	-17.9
515.205	-13.7
515.632	-13.5
516.059	-12.1
516.486	-0.4
516.914	-17.7
517.341	-18.8
517.768	-5.1
518.194	-11.7
518.621	-10.9
519.048	-13
519.475	-13.1
519.902	-9.9
520.328	-8
520.755	-9
521.181	-19.1
521.608	-9.9
522.034	-8.6
522.461	-7.2
522.887	-13.8
523.313	-1.7
523.739	-16
524.165	2.3
524.592	-11.2
525.018	-15
525.444	-8.5
525.869	-7.1
526.295	-8
526.721	-3.8
527.147	-11.6
527.573	-0.4
527.998	-9.4
528.424	-12.1
528.849	-13.5
529.275	3.5
529.7	-5.4
530.126	-4
530.551	-12.5
530.976	-12.1
531.402	-14.4
531.827	-8.8
532.252	-9
532.677	-5.3
533.102	-9
533.527	-8.7
533.952	-5.6
534.377	-10.1
534.801	-6.2
535.226	-2.3
535.651	-16.4
536.076	-10.9
536.5	-10.2
536.925	-1.8
537.349	-6.9
537.773	-14.6
538.198	-11
538.622	-11.2
539.046	-20.8
539.471	-8.6
539.895	-12.5
540.319	-15.4
540.743	-17.9
541.167	-9.4
541.591	-15.3
542.015	-6.1
542.438	-17
542.862	-21.4
543.286	-7.3
543.71	-5.2
544.133	-17.9
544.557	-15.9
544.98	-12.7
545.404	-11
545.827	-16.1
546.25	-6.8
546.674	-7.8
547.097	-10.5
547.52	-7.2
547.943	-18.3
548.366	-15
548.789	-7.2
549.212	-7.3
549.635	-14.3
550.058	-8.4
550.481	-9.2
550.903	-5.7
551.326	-4.2
551.749	-10.2
552.171	-10.8
552.594	-12
553.016	-4.4
553.438	-8.5
553.861	-3.4
554.283	-9.3
554.705	-4.2
555.128	-16.7
555.55	-5.9
555.972	-3.1
556.394	-13.2
556.816	-2.7
557.238	-11.9
557.659	-10.5
558.081	-9.8
558.503	-13.3
558.925	-9
559.346	-17
559.768	-3.2
560.189	-16.7
560.611	-9.8
561.032	-10.2
561.454	-15.3
561.875	-7.2
562.296	-3.1
562.718	-2.7
563.139	-16.2
563.56	-3.3
563.981	-15.6
564.402	-3.8
564.823	-8.4
565.244	-0.1
565.664	-8.4
566.085	-5.2
566.506	-9.9
566.927	-3.9
567.347	-9
567.768	-11.4
568.188	-13
568.609	-15.1
569.029	-14
569.449	-15.2
569.87	-14.9
570.29	-7.1
570.71	-16.4
571.13	-11.6
571.55	-21.1
571.97	-2.3
572.39	-14
572.81	-15.2
573.23	-6.7
573.65	-13.4
574.069	-20.5
574.489	-11.9
574.909	-9
575.328	-4.6
575.748	-13
576.167	-15.1
576.587	-3.2
577.006	-5.4
577.425	-8.8
577.844	-7
578.264	-14.1
578.683	-20.6
579.102	-15.6
579.521	-10.6
579.94	-15.7
580.359	-9.1
580.778	-14.5
581.196	-19.2
581.615	-5.9
582.034	-8.5
582.452	-19.7
582.871	-13.1
583.29	-12.1
583.708	-11
584.126	-13.3
584.545	-7.5
584.963	-18.7
585.381	-12.9
585.8	-15.1
586.218	-6.7
586.636	-2.4
587.054	-12.7
587.472	-29
587.89	-7.9
588.308	-12.7
588.725	-17
589.143	-9.5
589.561	-6
589.979	-10.3
590.396	-8.7
590.814	-14.5
591.231	-6.5
591.649	-14.8
592.066	-21
592.483	-14.8
592.901	-3.9
593.318	-17.1
593.735	-15.9
594.152	-8.1
594.569	-9.8
594.986	-22.7
595.403	-15.3
595.82	-10.8
596.237	-0.1
596.654	-8.4
597.07	-16.8
597.487	-8
597.904	-13.7
598.32	-18.8
598.737	-1.8
599.153	-10.5
599.57	-12.4
599.986	-8.5
600.402	-3.4
600.818	-5.5
601.235	-16.8
601.651	-18.7
602.067	-21.6
602.483	-3.5
602.899	-18.1
603.315	-4
603.73	-8.3
604.146	-12.9
604.562	-16
604.978	-14.1
605.393	-13.5
605.809	-11.2
606.224	-12.1
606.64	-6.9
607.055	-13.3
607.471	-19
607.886	-7.9
608.301	-18.3
608.716	-20.2
609.131	-9.7
609.547	-9
609.962	-6
610.377	-1.8
610.791	-17.6
611.206	-20.7
611.621	-25
612.036	-8.1
612.451	-12.7
612.865	-21.5
613.28	-7.6
613.694	-20.5
614.109	-11.6
614.523	-12.1
614.938	-9.8
615.352	-8.5
615.766	-18.6
616.18	-5.1
616.595	-1.6
617.009	-5.6
617.423	-10.1
617.837	-16.1
618.251	-10.8
618.664	-7.6
619.078	-7.4
619.492	-13.1
619.906	-12.8
620.319	1.4
620.733	-1.1
621.146	-6.2
621.56	-1.6
621.973	-3.6
622.387	-8.9
622.8	0
623.213	-5.5
623.627	-2.2
624.04	8.2
624.453	-0.6
624.866	-1.7
625.279	2.2
625.692	-2.2
626.105	3.4
626.518	-1.3
626.93	-7.7
627.343	7.7
627.756	3.8
628.168	7.2
628.581	4.4
628.993	-3.3
629.406	12.5
629.818	12.4
630.231	5.6
630.643	8
631.055	12.8
631.467	12.8
631.879	8.2
632.291	10.7
632.703	16
633.115	11.4
633.527	31.3
633.939	32.2
634.351	36.6
634.763	42.5
635.174	38.4
635.586	44.8
635.997	52.4
636.409	30.2
636.82	52.7
637.232	49.9
637.643	45.4
638.054	55.1
638.466	52.9
638.877	57.5
639.288	60.9
639.699	55.8
640.11	60.4
640.521	68.6
640.932	66.6
641.343	61.4
641.753	69.7
642.164	74.3
642.575	75.6
642.986	79.8
643.396	65.6
643.807	66.6
644.217	80.7
644.627	81
645.038	63.6
645.448	71.9
645.858	66.7
646.269	62.5
646.679	71.1
647.089	70.2
647.499	72.2
647.909	62.4
648.319	79.7
648.728	55.4
649.138	54.6
649.548	70.9
649.958	67.4
650.367	57.9
650.777	64.9
651.186	46.9
651.596	53.2
652.005	52.4
652.415	45.3
652.824	50.5
653.233	50.3
653.642	53.4
654.052	48.1
654.461	54
654.87	59.6
655.279	60.5
655.688	55.6
656.096	47.6
656.505	47.8
656.914	58.9
657.323	48.2
657.731	47.9
658.14	48.9
658.548	48.8
658.957	50.5
659.365	36.6
659.774	40.2
660.182	41
660.59	46.1
660.998	49.4
661.407	37.8
661.815	41.1
662.223	39
662.631	34.6
663.039	46.5
663.446	37.4
663.854	32.8
664.262	26
664.67	24.9
665.077	38.4
665.485	25.5
665.892	27.2
666.3	21.5
666.707	31.9
667.115	27.2
667.522	14.7
667.929	23.2
668.337	18.9
668.744	15
669.151	10.2
669.558	22.4
669.965	9.7
670.372	7.5
670.779	9.4
671.185	11
671.592	10.4
671.999	9.4
672.405	10.6
672.812	0
673.219	5.2
673.625	6.1
674.032	5.7
674.438	-1.2
674.844	0.7
675.25	-2.3
675.657	-12.4
676.063	-6
676.469	-7.2
676.875	-9.3
677.281	-0.4
677.687	-1.9
678.093	-7.6
678.499	-4.7
678.904	-16.3
679.31	-5.6
679.716	-4.9
680.121	-10.2
680.527	-7.1
680.932	-12.6
681.338	-14.7
681.743	1
682.148	-9.3
682.554	-8.6
682.959	-11.5
683.364	-3.1
683.769	11.1
684.174	-8.2
684.579	-16.2
684.984	-5.1
685.389	-14.2
685.794	-23.2
686.199	-15
686.603	-13.7
687.008	-15.8
687.413	-6.2
687.817	-12.6
688.222	-13.7
688.626	-9.9
689.03	-8.2
689.435	-6.8
689.839	-12.7
690.243	-10.8
690.647	-6.5
691.051	-13.8
691.456	-6
691.859	-16.8
692.263	-4.7
692.667	-9.3
693.071	-14.8
693.475	-9.7
693.879	-1.8
694.282	-5.9
694.686	-12.4
695.089	0
695.493	-5.2
695.896	-12.8
696.3	-6
696.703	-6
697.106	-11.7
697.509	-11.1
697.913	-11.7
698.316	-9.5
698.719	-8.8
699.122	-13.1
699.525	-7.8
699.928	-4.6
700.33	-2.2
700.733	-10.8
701.136	-10.3
701.539	-11.6
701.941	-12.3
702.344	-17
702.746	-6.8
703.149	-17
703.551	-14.8
703.953	-6.8
704.356	-3.1
704.758	-11.6
705.16	-4.7
705.562	-12.5
705.964	3.3
706.366	-9.4
706.768	-11.2
707.17	-9.3
707.572	-10.9
707.973	-14.2
708.375	-5
708.777	-12.7
709.178	-12
709.58	-14.9
709.981	-15.8
710.383	-9.4
710.784	-9
711.186	-16.5
711.587	-14.1
711.988	-6.1
712.389	-6.5
712.79	-9.5
713.191	-2.8
713.592	-17.2
713.993	-11.9
714.394	-7.5
714.795	-8.6
715.196	-11.3
715.596	-14.9
715.997	-3.4
716.398	-6.7
716.798	-7.4
717.199	-10.2
717.599	-5
718	-10.1
718.4	-10.1
718.8	-5.2
719.2	-9.9
719.6	-14.5
720.001	-17.1
720.401	-16
720.801	-26.5
721.201	-12.7
721.6	-10.5
722	-6.5
722.4	-13.8
722.8	-7.4
723.199	-15.8
723.599	-11.6
723.998	-6.8
724.398	-16.6
724.797	-8.2
725.197	-10.6
725.596	-9.6
725.995	-7.7
726.394	-17.5
726.794	-5.6
727.193	-6.9
727.592	-13.2
727.991	-14.5
728.39	-12.2
728.789	-14.8
729.187	-9.7
729.586	-3.4
729.985	-13.7
730.383	-16.3
730.782	-4.7
731.181	-9
731.579	-0.7
731.977	2.6
732.376	-11.1
732.774	-5.7
733.172	-5.6
733.571	-20.4
733.969	-3.8
734.367	-3.6
734.765	3.2
735.163	-10.3
735.561	-10
735.959	9.5
736.356	-4.1
736.754	1.6
737.152	-0.9
737.55	-5.5
737.947	-1.7
738.345	1.9
738.742	2.5
739.14	2.5
739.537	11.8
739.934	6.4
740.331	5
740.729	7
741.126	19.3
741.523	16.2
741.92	11.6
742.317	25.8
742.714	18
743.111	14.1
743.507	15
743.904	8.4
744.301	21.3
744.697	12.9
745.094	21.3
745.491	14.8
745.887	26.2
746.283	17.2
746.68	22.1
747.076	21
747.472	28.4
747.869	20.4
748.265	26
748.661	12.3
749.057	21.4
749.453	17
749.849	17.5
750.244	19.7
750.64	23
751.036	17.3
751.432	16.9
751.827	15
752.223	20.9
752.618	33.2
753.014	20.2
753.409	12.9
753.805	16.9
754.2	15
754.595	24.2
754.99	24
755.385	33.2
755.78	26.8
756.175	38.1
756.57	31.2
756.965	31.9
757.36	28.3
757.755	40.7
758.15	41.3
758.544	54.1
758.939	62.8
759.334	64.4
759.728	61.2
760.122	66.2
760.517	71.2
760.911	70.9
761.306	67.5
761.7	71.3
762.094	63.7
762.488	64.1
762.882	65
763.276	59.7
763.67	61.6
764.064	68.1
764.458	73.8
764.852	70.2
765.245	71.3
765.639	72.7
766.033	82.3
766.426	78.4
766.82	82
767.213	85.3
767.606	84.4
768	70.3
768.393	70.3
768.786	70.2
769.179	70.3
769.572	81
769.966	66.1
770.358	69
770.751	71.1
771.144	84
771.537	73.3
771.93	71.4
772.323	64.9
772.715	76.8
773.108	67
773.5	61.7
773.893	58.6
774.285	52.3
774.678	39.1
775.07	45.2
775.462	37.2
775.854	37.5
776.247	25.9
776.639	31.2
777.031	27.4
777.423	36.2
777.815	35
778.207	36.8
778.598	37.8
778.99	42.1
779.382	50.2
779.773	58.3
780.165	56.6
780.557	62.8
780.948	61.1
781.339	75.8
781.731	69.9
782.122	79.5
782.513	75.8
782.905	70.9
783.296	73.9
783.687	76.1
784.078	66.3
784.469	66.1
784.86	70.8
785.251	63.4
785.641	59.8
786.032	58.2
786.423	48
786.813	60.3
787.204	56.8
787.594	58.5
787.985	45
788.375	54.2
788.766	46.5
789.156	37.6
789.546	34.2
789.936	28.4
790.326	37.1
790.717	30
791.107	24.7
791.497	22.2
791.886	17.8
792.276	28.4
792.666	20.9
793.056	16.1
793.445	9.3
793.835	13.8
794.225	27.7
794.614	11.2
795.004	17.8
795.393	3.1
795.782	13.2
796.172	10.6
796.561	13.6
796.95	4.5
797.339	15.2
797.728	12
798.117	8.5
798.506	7.5
798.895	12.1
799.284	16.4
799.673	6.6
800.061	12.9
800.45	8.6
800.839	3.8
801.227	4.4
801.616	-0.8
802.004	5.6
802.392	2.8
802.781	3.6
803.169	-0.7
803.557	-2
803.945	0.9
804.333	4
804.721	-1.9
805.109	-0.8
805.497	-1.3
805.885	-13
806.273	1.6
806.661	0.4
807.048	-2.9
807.436	-4.4
807.824	-0.5
808.211	-6.3
808.599	-15.3
808.986	-5.6
809.373	-4.6
809.761	-8.8
810.148	-3.3
810.535	-10.8
810.922	-9
811.309	-9.4
811.696	-9.5
812.083	-7.8
812.47	-12.7
812.857	-6.8
813.244	-20.3
813.631	-0.2
814.017	-9.4
814.404	-6.4
814.791	-12.7
815.177	6.3
815.564	-7.8
815.95	-4.9
816.336	1.2
816.723	-10.6
817.109	-11.6
817.495	-12.6
817.881	-0.5
818.267	-8.5
818.653	-15.9
819.039	-16.8
819.425	-13.6
819.811	-11.5
820.197	-8.7
820.582	-8.1
820.968	-6.9
821.354	-0.6
821.739	-3.8
822.125	-4.1
822.51	-0.8
822.895	-6.3
823.281	-3.4
823.666	-4.4
824.051	-6.7
824.436	-4.9
824.822	-10.9
825.207	-9.8
825.592	-3.9
825.976	-10.4
826.361	-4.3
826.746	-2.3
827.131	-10.5
827.516	-12.3
827.9	1
828.285	-13.4
828.669	-15.3
829.054	-4.2
829.438	-8.2
829.823	-7.5
830.207	-8.6
830.591	-18
830.975	-5
831.36	-17.7
831.744	-17.9
832.128	-21.6
832.512	-8.9
832.895	-8.6
833.279	-6.3
833.663	-8.2
834.047	-0.8
834.431	-8.9
834.814	-10.6
835.198	-18.6
835.581	-14.7
835.965	-9.5
836.348	-11.8
836.731	-8.9
837.115	-12.7
837.498	-13.5
837.881	-0.6
838.264	-13.2
838.647	-12.9
839.03	-6.6
839.413	-10.5
839.796	-5.6
840.179	-6.9
840.562	-10.4
840.944	-12.4
841.327	-11.1
841.71	-11.5
842.092	-5.5
842.475	-4.5
842.857	-16
843.24	-13.7
843.622	-11.8
844.004	-6.3
844.386	-14
844.769	-14.1
845.151	-6.9
845.533	-4.1
845.915	-4.2
846.297	-11.7
846.678	-11.5
847.06	-7.1
847.442	-11.8
847.824	-15.4
848.205	-13.5
848.587	-7.2
848.968	-12.9
849.35	-1.1
849.731	-16.9
850.113	-8.5
850.494	-10.6
850.875	-7.5
851.256	-13.1
851.638	-20.6
852.019	-5.5
852.4	-9.2
852.781	-17.4
853.161	-12.3
853.542	-7
853.923	-0.9
854.304	-9.1
854.685	-0.9
855.065	-7.8
855.446	-14.4
855.826	-17.3
856.207	-16.2
856.587	0.9
856.967	-13
857.348	-7.7
857.728	-14
858.108	-13.7
858.488	-6.7
858.868	-2.1
859.248	-7.7
859.628	-23.2
860.008	-17
860.388	-16.2
860.768	-8.5
861.147	-10.5
861.527	-15.7
861.907	-15.4
862.286	-9.4
862.666	-11.1
863.045	-5.8
863.424	-7.3
863.804	-12.2
864.183	-12.7
864.562	-6.4
864.941	-11.1
865.32	-7.2
865.699	-17.1
866.078	-13.8
866.457	-22.2
866.836	-9.9
867.215	-8.9
867.594	-8.5
867.972	-12.7
868.351	-16.7
868.729	-11.1
869.108	-6.4
869.486	-16.4
869.865	-10.1
870.243	-10.6
870.621	-7.4
871	-10.4
871.378	-15.4
871.756	-6.4
872.134	-9.2
872.512	-11.3
872.89	-12.9
873.268	-7.2
873.646	-18.7
874.023	-9.9
874.401	-8.9
874.779	-13.4
875.156	-8.1
875.534	1.7
875.911	-9.5
876.289	-24.6
876.666	-17.9
877.043	-5.5
877.421	-16
877.798	-6.5
878.175	-19.7
878.552	-6.9
878.929	-3.8
879.306	-14.1
879.683	-9.8
880.06	-3.8
880.437	-16.2
880.813	-11.8
881.19	0.7
881.567	-12.3
881.943	-18.2
882.32	-9.6
882.696	-9.8
883.073	-11.5
883.449	-15.8
883.825	-16.6
884.202	-13
884.578	-15.2
884.954	-8.9
885.33	-11.8
885.706	-10.6
886.082	-12.9
886.458	-14
886.834	-5.9
887.209	-5.2
887.585	-9.2
887.961	-8.2
888.336	-13.4
888.712	-4
889.087	-8.4
889.463	-18.9
889.838	-13.2
890.213	-4.5
890.589	-7.2
890.964	-9.5
891.339	-9.1
891.714	-8.9
892.089	-7.7
892.464	-13.6
892.839	-12
893.214	-16.6
893.589	-18.1
893.963	-14
894.338	0.1
894.713	-7.9
895.087	-2
895.462	-9.8
895.836	-6.2
896.211	-5.1
896.585	-14
896.959	-8.6
897.334	-9
897.708	-4.3
898.082	-1.8
898.456	-15.7
898.83	-9.7
899.204	2.2
899.578	-5.9
899.952	-13.2
900.325	-5.7
900.699	-10.6
901.073	-0.6
901.446	-1.5
901.82	-6.3
902.193	-10.8
902.567	1.9
902.94	-4.3
903.313	-11.9
903.687	-10.6
904.06	2.6
904.433	-3.2
904.806	-8.9
905.179	-19.5
905.552	-11.9
905.925	-4.3
906.298	-8.9
906.671	-3.5
907.043	1.3
907.416	-12.1
907.789	2.1
908.161	-9.2
908.534	-11.1
908.906	-3
909.279	-11.7
909.651	-8.5
910.023	-13.9
910.396	-9.8
910.768	-5.2
911.14	-14
911.512	-5.8
911.884	-13.7
912.256	-9.1
912.628	-5.4
912.999	-1.8
913.371	-10.8
913.743	-13.5
914.115	1.4
914.486	-17.6
914.858	-10.8
915.229	-2.8
915.601	-5
915.972	2.1
916.343	-2.9
916.715	-5.7
917.086	-2.8
917.457	-5.5
917.828	-5.9
918.199	-11.4
918.57	-8.2
918.941	-4.8
919.312	4.7
919.682	-10
920.053	-11.5
920.424	-3.5
920.794	-11.7
921.165	-5.4
921.536	-12.8
921.906	2.3
922.276	-7.6
922.647	-1.3
923.017	-9.4
923.387	-6.7
923.757	-12.4
924.127	-2.8
924.497	-2
924.867	-9.2
925.237	-10.8
925.607	-10.3
925.977	0.2
926.347	-2.9
926.716	-16.8
927.086	0.2
927.456	-0.7
927.825	-1.2
928.195	-6.3
928.564	-1.8
928.933	-1.3
929.303	-6.7
929.672	-8.9
930.041	-4.7
930.41	2.2
930.779	-11.4
931.148	-0.9
931.517	-2.5
931.886	-17.6
932.255	7.7
932.624	-2.2
932.993	-5.1
933.361	-6.3
933.73	-2
934.098	-0.2
934.467	0.3
934.835	6.7
935.204	-10.6
935.572	-17
935.94	5.5
936.308	-3.1
936.677	3.4
937.045	3.7
937.413	2.2
937.781	-2
938.149	3.8
938.516	-3.8
938.884	-3.1
939.252	-4.9
939.62	-3.9
939.987	-4.8
940.355	-7.4
940.722	-0.6
941.09	2.4
941.457	-3.8
941.825	-4.7
942.192	-7.5
942.559	-13.5
942.926	-5.4
943.293	-11.4
943.66	-9.3
944.027	-9.9
944.394	0.9
944.761	-2.8
945.128	-15.8
945.495	-0.4
945.861	-5.7
946.228	-10.7
946.595	-5.4
946.961	-12.1
947.328	5
947.694	-2.7
948.06	-12.2
948.427	-4.9
948.793	-6.5
949.159	-4.8
949.525	-15.6
949.891	2.3
950.257	-10.5
950.623	-10.1
950.989	4
951.355	-7.7
951.721	-5
952.087	-7.3
952.452	2.8
952.818	-3.9
953.183	-7.4
953.549	-5.6
953.914	-3.8
954.28	-10.4
954.645	-3.4
955.01	1.2
955.375	-8.2
955.741	-4.4
956.106	3.4
956.471	-12.3
956.836	-15.6
957.201	-7.7
957.566	-1.1
957.93	-10.4
958.295	-7.6
958.66	-7.7
959.024	-6.6
959.389	-4.7
959.753	-3.3
960.118	-6.8
960.482	-15.2
960.847	-9.3
961.211	-11.3
961.575	-0.5
961.939	-13.7
962.303	-18.4
962.667	-6.9
963.031	-2.6
963.395	-4.1
963.759	-15.3
964.123	-7.7
964.487	-10.7
964.851	-9.4
965.214	-7.9
965.578	-17.4
965.941	-8
966.305	-9.8
966.668	-10.3
967.032	-11.5
967.395	-4.5
967.758	-11.3
968.121	-1.4
968.484	-10.8
968.847	-5.6
969.21	-4.3
969.573	-10.6
969.936	-14.3
970.299	-6.1
970.662	-11.7
971.025	-12.2
971.387	-6.9
971.75	-13.1
972.112	-2.1
972.475	-7.3
972.837	-0.9
973.2	-5.2
973.562	-0.1
973.924	-4.2
974.286	2.2
974.649	-14.6
975.011	-12.9
975.373	-18.8
975.735	-11.5
976.097	-4.6
976.458	-4.1
976.82	-18.4
977.182	-7.6
977.544	-14.9
977.905	-11.5
978.267	-7.2
978.628	-7.6
978.99	-6.1
979.351	-9.6
979.712	-16.6
980.074	-13.2
980.435	-13.5
980.796	-0.1
981.157	-16.9
981.518	-14.7
981.879	-12
982.24	-8.1
982.601	-9.7
982.962	-9.7
983.323	-13.2
983.683	-10.8
984.044	-0.8
984.404	-28.5
984.765	-9.3
985.125	-8.1
985.486	-6.8
985.846	-12.5
986.206	-8
986.567	-16.3
986.927	-9.6
987.287	-9.1
987.647	-13.7
988.007	-6.1
988.367	-19
988.727	-12.5
989.087	-6.2
989.446	-11.8
989.806	-13.6
990.166	-10.2
990.525	-8.5
990.885	-13.6
991.244	-10
991.604	-14
991.963	-12.3
992.322	-9.5
992.682	-16.2
993.041	-20.2
993.4	-14.7
993.759	-19.1
994.118	-22.2
994.477	-8
994.836	-23.2
995.195	-18.5
995.553	-6.7
995.912	-4.2
996.271	-18.6
996.629	-11.5
996.988	-8.5
997.346	-7.1
997.705	-5.7
998.063	-3
998.422	-15.6
998.78	-20.6
999.138	-13.9
999.496	-15.8
999.854	-8.2
1000.212	-19.6
1000.57	-12.3
1000.928	-19.6
1001.286	4.4
1001.644	-19.1
1002.001	-6.7
1002.359	-11.2
1002.717	-10.9
1003.074	-9.8
1003.432	-18.9
1003.789	-13.7
1004.147	-11.5
1004.504	-15.6
1004.861	-12
1005.218	-0.8
1005.576	-10
1005.933	-15.5
1006.29	-13.5
1006.647	-14.7
1007.004	-3
1007.36	-7.9
1007.717	-6.8
1008.074	-9.8
1008.431	-9.4
1008.787	-9.5
1009.144	-6.8
1009.5	-15.6
1009.857	-14.7
1010.213	-6.4
1010.569	-14.1
1010.926	-10.7
1011.282	-11.2
1011.638	-22.5
1011.994	-3.8
1012.35	-17
1012.706	-13
1013.062	-26.3
1013.418	-19.7
1013.774	-5.3
1014.13	-9.7
1014.485	-15.3
1014.841	-12.5
1015.197	-9.2
1015.552	-7
1015.907	-13.2
1016.263	-4
1016.618	-9.4
1016.974	-8.5
1017.329	-10.9
1017.684	-11.2
1018.039	-16.8
1018.394	-18.7
1018.749	-16.1
1019.104	-9.4
1019.459	-11.4
1019.814	-10.3
1020.168	-15.6
1020.523	-13.9
1020.878	-19
1021.232	-12.3
1021.587	-0.1
1021.941	-13.7
1022.296	-24.2
1022.65	-12.1
1023.004	-17.5
1023.359	-12.1
1023.713	-11.5
1024.067	-10.4
1024.421	3
1024.775	-11.1
1025.129	-17.1
1025.483	-20.4
1025.837	-9.7
1026.19	-10.6
1026.544	-18.4
1026.898	-14.7
1027.251	-18
1027.605	-18.8
1027.958	-8.8
1028.312	-10.1
1028.665	-11.1
1029.018	-11.7
1029.372	-2.5
1029.725	-11.8
1030.078	-9.4
1030.431	-17.9
1030.784	-7.7
1031.137	-16.6
1031.49	-4.7
1031.843	-21.2
1032.195	-19.8
1032.548	-10.2
1032.901	-18.6
1033.253	-5.5
1033.606	-7.6
1033.958	-13.2
1034.311	-10.6
1034.663	-7.6
1035.016	-4.2
1035.368	-13.5
1035.72	-2.7
1036.072	-6.9
1036.424	-5.2
1036.776	-5.3
1037.128	-12
1037.48	-11.6
