Data from 0.8bar_Subt2__0__17-08-01-782.txt Node

Date: Thu Jan 06 17:08:01 CET 2022
User: fsatto
Spectrometer: OFX01956
Trigger mode: 0
Integration Time (sec): 6.000000E-3
Scans to average: 10
Nonlinearity correction enabled: false
Boxcar width: 0
Storing dark spectrum: false
XAxis mode: Wavelengths
Number of Pixels in Spectrum: 2136
>>>>>Begin Spectral Data<<<<<
158.236	15.1
158.705	10.3
159.174	13.8
159.643	27.9
160.112	21
160.582	28.4
161.051	25.4
161.52	18.5
161.988	21.1
162.457	29.8
162.926	14.3
163.395	37.9
163.864	23.7
164.332	-0.8
164.801	10.7
165.269	23
165.738	29.5
166.206	6.2
166.675	29.3
167.143	23.2
167.612	21.5
168.08	12.6
168.548	16.7
169.016	27.7
169.484	25.6
169.952	37.4
170.42	34.3
170.888	29.3
171.356	14.9
171.824	9
172.292	22.3
172.759	17.4
173.227	4.5
173.695	20.8
174.162	29.5
174.63	37.5
175.097	23.3
175.565	30.3
176.032	27.5
176.499	17.3
176.967	31.1
177.434	22.5
177.901	23
178.368	23.6
178.835	24.9
179.302	43
179.769	31.6
180.236	14.1
180.703	29.6
181.17	31.2
181.637	26.2
182.103	17.8
182.57	15
183.036	20.4
183.503	29.5
183.97	6
184.436	21.4
184.902	15.4
185.369	29.9
185.835	15.7
186.301	37.5
186.767	22
187.234	16.2
187.7	26.4
188.166	15.5
188.632	14.9
189.098	27.7
189.563	29.1
190.029	6.7
190.495	22.6
190.961	42.8
191.426	30.5
191.892	33
192.358	9.1
192.823	11.1
193.289	10.2
193.754	20.2
194.219	14.4
194.685	40.3
195.15	19.2
195.615	26.4
196.08	19.8
196.545	28.8
197.01	1.1
197.475	24.5
197.94	19.4
198.405	22.5
198.87	3.3
199.335	32.4
199.8	9.9
200.264	51.6
200.729	52.4
201.193	37.6
201.658	36.3
202.122	30.6
202.587	15
203.051	51.8
203.516	75.5
203.98	61.9
204.444	51.6
204.908	52.2
205.372	97.3
205.836	110.7
206.3	82.3
206.764	85.5
207.228	95.3
207.692	73.8
208.156	114
208.62	108.4
209.083	123.7
209.547	117
210.011	138.6
210.474	142.4
210.938	134.1
211.401	133.5
211.864	136.5
212.328	134.3
212.791	141.9
213.254	144.6
213.717	116.2
214.181	158.4
214.644	151.1
215.107	158.1
215.57	151.4
216.033	187.7
216.495	202.4
216.958	217.5
217.421	266.4
217.884	279.1
218.346	296.8
218.809	357.6
219.272	374.2
219.734	431.5
220.196	477.4
220.659	525.2
221.121	558.5
221.584	631.6
222.046	738.4
222.508	835.9
222.97	977
223.432	1102.7
223.894	1207.7
224.356	1374.3
224.818	1547.2
225.28	1775.9
225.742	1981.9
226.204	2261.4
226.665	2382.8
227.127	2412.5
227.589	2543.6
228.05	2860.7
228.512	3265.6
228.973	3335.9
229.435	3156.8
229.896	3007.7
230.357	3350.9
230.818	4145.9
231.28	4645.1
231.741	4773.4
232.202	4243.7
232.663	3840.2
233.124	3925.7
233.585	4743.2
234.046	5606.9
234.507	5874.3
234.967	4978
235.428	3914.8
235.889	3403.7
236.349	3977.9
236.81	4733.9
237.271	4828.8
237.731	4089.5
238.191	3313.4
238.652	3033
239.112	3647.6
239.572	4791.3
240.033	5576.6
240.493	4975.7
240.953	3818.5
241.413	3377.9
241.873	3931.7
242.333	4911.3
242.793	5420.6
243.253	5062.7
243.712	4364.5
244.172	4140.8
244.632	4654.1
245.092	5724.9
245.551	6493.9
246.011	6482
246.47	6231.1
246.93	6408.4
247.389	7299.8
247.848	8872.5
248.308	10263
248.767	11072.1
249.226	10752.3
249.685	10394.2
250.144	10558.8
250.603	12496.7
251.062	14977.9
251.521	16462.3
251.98	16555.1
252.439	16138.2
252.897	15936.4
253.356	16925.2
253.815	18303.3
254.273	19161.1
254.732	19414.1
255.19	18097.8
255.649	16765.7
256.107	16220.8
256.566	16244.8
257.024	17298.6
257.482	17827
257.94	18147
258.398	18964.5
258.856	18669.8
259.315	17551.9
259.772	16881.6
260.23	16405
260.688	15685.8
261.146	14883.1
261.604	14443
262.062	14781.2
262.519	15834.5
262.977	16533.7
263.434	15928.9
263.892	15739.7
264.349	16126.5
264.807	17291.5
265.264	17986.5
265.721	18300.3
266.179	18575
266.636	17796.4
267.093	17183.1
267.55	17705.1
268.007	19082.5
268.464	19887.6
268.921	19701.4
269.378	18059.8
269.835	17204.2
270.291	16796.6
270.748	16801.3
271.205	16969.1
271.661	16233.8
272.118	14963.9
272.574	14434
273.031	14122.6
273.487	13684.6
273.944	13651.6
274.4	14124.9
274.856	14335.8
275.312	13567.6
275.768	13229.5
276.225	13304.8
276.681	13901.4
277.137	14115.4
277.593	14018.4
278.048	13796.6
278.504	13602.1
278.96	13393.5
279.416	12739.5
279.871	12454.6
280.327	12314.1
280.783	12975.3
281.238	13374.2
281.694	12878.5
282.149	12004.8
282.604	11463.8
283.06	11062
283.515	10835.2
283.97	11007.9
284.425	10781.8
284.88	10310.9
285.335	9700.4
285.79	8768.8
286.245	8145.4
286.7	8474.8
287.155	9062.2
287.61	9128.1
288.064	9083.3
288.519	9489.3
288.974	9588.6
289.428	8950.9
289.883	8826.5
290.337	9084.2
290.792	9597.9
291.246	10110.4
291.7	10365.5
292.155	10462.2
292.609	10525.8
293.063	10432.4
293.517	10747
293.971	11228.9
294.425	11713.4
294.879	11859.7
295.333	11553
295.787	11293.8
296.241	11264.1
296.694	11219.7
297.148	11702.1
297.602	11955.5
298.055	11972.8
298.509	11385.5
298.962	10533.7
299.416	10076.7
299.869	9900.6
300.322	9948.9
300.775	9793.5
301.229	9531.8
301.682	9248.7
302.135	8692.9
302.588	8158.1
303.041	7938.2
303.494	7793.1
303.947	7594.9
304.4	7317.7
304.852	6951.2
305.305	6600.3
305.758	6149.8
306.21	5593
306.663	5247.2
307.115	5045.9
307.568	5002.2
308.02	4822.6
308.473	4541.6
308.925	4174.9
309.377	3896
309.829	3736.2
310.282	3593.8
310.734	3584.4
311.186	3539.2
311.638	3381.8
312.09	3225.6
312.542	3163.9
312.993	3089.7
313.445	2956
313.897	2905.2
314.349	2786.6
314.8	2787.2
315.252	2651.7
315.703	2584.6
316.155	2482.4
316.606	2326.2
317.058	2250.3
317.509	2298.3
317.96	2228.3
318.411	2143.3
318.863	2176.5
319.314	2184.6
319.765	2152.2
320.216	2145.9
320.667	2002.2
321.117	1919.3
321.568	1952
322.019	1953.8
322.47	1934.7
322.921	1837.4
323.371	1695.1
323.822	1548.7
324.272	1457.6
324.723	1358.7
325.173	1289.3
325.623	1195.2
326.074	1124.2
326.524	1082.2
326.974	1242.7
327.424	1622.6
327.874	1864.5
328.325	1474
328.775	1025.7
329.224	897.9
329.674	883.8
330.124	864.7
330.574	804.9
331.024	751.5
331.473	670.2
331.923	646.4
332.373	585.8
332.822	548.6
333.272	494.8
333.721	459.1
334.17	445.5
334.62	444.4
335.069	409.4
335.518	379.8
335.967	361.7
336.416	327.8
336.865	316.9
337.314	311.8
337.763	257.1
338.212	241.3
338.661	252.2
339.11	221.4
339.558	210.7
340.007	211.4
340.456	207.7
340.904	216.1
341.353	191.4
341.801	170.5
342.25	177.5
342.698	161.3
343.146	168
343.595	127.9
344.043	150.1
344.491	126.1
344.939	116
345.387	114.4
345.835	102.1
346.283	103
346.731	86.7
347.179	69.4
347.626	80.2
348.074	80.2
348.522	71.2
348.969	60.4
349.417	29.5
349.865	87.2
350.312	77.6
350.759	76.7
351.207	55.4
351.654	48.4
352.101	34.6
352.548	70.3
352.996	38.3
353.443	81.9
353.89	52.7
354.337	42.5
354.784	36.4
355.231	58.3
355.677	44.4
356.124	24.6
356.571	46.6
357.018	41.9
357.464	50
357.911	60
358.357	32
358.804	31.1
359.25	57.5
359.696	31.3
360.143	27.9
360.589	24.1
361.035	18.9
361.481	48.5
361.927	29.4
362.373	35.4
362.819	56.8
363.265	19.3
363.711	18.9
364.157	27.3
364.603	11.9
365.048	29.6
365.494	26.5
365.94	42.1
366.385	46.4
366.831	18.7
367.276	8.6
367.722	30.5
368.167	16.4
368.612	18.8
369.057	30.9
369.503	14.4
369.948	2.6
370.393	36.2
370.838	14.1
371.283	48
371.728	37.8
372.173	3.4
372.617	6
373.062	-4.6
373.507	17.2
373.951	20.5
374.396	25
374.841	13.6
375.285	23.9
375.729	19.8
376.174	0.5
376.618	40.5
377.062	15.6
377.507	24.3
377.951	8.5
378.395	46.8
378.839	3.5
379.283	30.5
379.727	23.3
380.171	14.3
380.615	21.9
381.059	18.5
381.502	24.4
381.946	18.5
382.39	40.5
382.833	22.9
383.277	6
383.72	25.4
384.164	29
384.607	13.5
385.05	29.8
385.494	17.2
385.937	16
386.38	10.4
386.823	44.8
387.266	43.3
387.709	4.7
388.152	36.8
388.595	3.8
389.038	4.2
389.481	15
389.923	14.6
390.366	23.3
390.809	23.2
391.251	20.1
391.694	28.4
392.136	20.6
392.579	7.9
393.021	2.2
393.463	22.4
393.906	-9
394.348	15.8
394.79	24.8
395.232	23.7
395.674	20.8
396.116	7.4
396.558	29.3
397	19.1
397.442	43.4
397.884	26.3
398.325	23
398.767	34.4
399.209	11.9
399.65	13.9
400.092	34.3
400.533	27.7
400.974	20.3
401.416	18.5
401.857	13.2
402.298	39
402.74	20.3
403.181	11.2
403.622	28
404.063	35.1
404.504	19.9
404.945	28.8
405.386	24
405.826	24.2
406.267	13.1
406.708	19.2
407.149	18.1
407.589	32.2
408.03	-2.2
408.47	5.9
408.911	14.1
409.351	1.3
409.791	18.9
410.232	11.9
410.672	5.8
411.112	18
411.552	17.2
411.992	29.8
412.432	24.9
412.872	30
413.312	26.4
413.752	11.8
414.192	19.1
414.632	30.8
415.071	0.8
415.511	32
415.951	19.1
416.39	13.3
416.83	24.3
417.269	21.8
417.708	4.5
418.148	23
418.587	18.8
419.026	4.3
419.465	5.4
419.904	45.8
420.344	39.4
420.783	15.6
421.221	26.4
421.66	14.1
422.099	34.2
422.538	19.6
422.977	25.8
423.415	12
423.854	15
424.293	13.5
424.731	5.6
425.17	34.4
425.608	18.2
426.046	36.7
426.485	12.8
426.923	33.3
427.361	35
427.799	24.7
428.237	11.2
428.675	27.3
429.113	18.8
429.551	23.7
429.989	9.4
430.427	18.9
430.865	18.5
431.303	17.5
431.74	16.2
432.178	16.5
432.615	34.8
433.053	10.7
433.49	27.6
433.928	20.2
434.365	22.3
434.802	21.3
435.24	30.7
435.677	22.6
436.114	15.1
436.551	26.7
436.988	18.8
437.425	18.1
437.862	10.6
438.299	11.7
438.736	29
439.172	4.5
439.609	15.2
440.046	8.9
440.482	32.8
440.919	35.3
441.355	12.7
441.792	25.2
442.228	10.2
442.665	12.3
443.101	21.1
443.537	50.8
443.973	30.9
444.409	31.9
444.845	37.5
445.281	18.3
445.717	23.6
446.153	22.6
446.589	31.7
447.025	19.4
447.461	27.3
447.896	21.9
448.332	26.4
448.768	23.3
449.203	35.9
449.639	7.5
450.074	2.6
450.509	36.5
450.945	28.1
451.38	30.8
451.815	32.5
452.25	21.4
452.685	16.2
453.12	39.3
453.555	38.7
453.99	20.7
454.425	55.4
454.86	34.7
455.295	25.4
455.73	18.4
456.164	0.9
456.599	33.4
457.033	18.1
457.468	28.5
457.902	24.2
458.337	27.5
458.771	34.7
459.205	46
459.64	37.1
460.074	29.3
460.508	38.2
460.942	30.2
461.376	27.9
461.81	35.8
462.244	30.5
462.678	13.5
463.112	26.1
463.545	12.8
463.979	20
464.413	9.4
464.846	20.3
465.28	27.9
465.713	18.1
466.147	39.6
466.58	36.6
467.014	14.1
467.447	25.7
467.88	16.4
468.313	31.3
468.746	35
469.179	29
469.612	21.3
470.045	32.8
470.478	41.6
470.911	25.5
471.344	14
471.777	25.4
472.209	23
472.642	30.1
473.074	18.2
473.507	43.3
473.939	43.6
474.372	39.7
474.804	9.8
475.236	23.4
475.669	35
476.101	29.1
476.533	63.5
476.965	16.2
477.397	28
477.829	13.3
478.261	13.8
478.693	24.6
479.125	30.6
479.557	30.9
479.988	25.1
480.42	38.8
480.852	28.1
481.283	37.2
481.715	29.5
482.146	34
482.577	35.7
483.009	18.5
483.44	35.5
483.871	29.3
484.302	21.6
484.734	30.1
485.165	29.3
485.596	17.3
486.027	39.4
486.457	49.1
486.888	32
487.319	32.7
487.75	32.9
488.181	52.7
488.611	30.1
489.042	32.1
489.472	30.4
489.903	45.5
490.333	25.2
490.764	13
491.194	54.3
491.624	40.5
492.054	30.5
492.484	22.5
492.915	23.3
493.345	20.5
493.775	21.1
494.204	17.9
494.634	32.3
495.064	14.4
495.494	36.3
495.924	20.5
496.353	39.8
496.783	37.9
497.212	23.7
497.642	18
498.071	39
498.501	24.4
498.93	21.7
499.359	24.5
499.789	24.6
500.218	44.1
500.647	36.8
501.076	42.8
501.505	41
501.934	17.8
502.363	40
502.792	43.3
503.221	46.1
503.649	26
504.078	27.2
504.507	43.4
504.935	18.9
505.364	22.9
505.792	37.6
506.221	31
506.649	12.8
507.077	18.9
507.506	47.5
507.934	58.4
508.362	0.8
508.79	17.6
509.218	10.8
509.646	8.5
510.074	12.3
510.502	4.5
510.93	10.8
511.357	24.8
511.785	24.3
512.213	5
512.64	24.9
513.068	42.5
513.496	30.9
513.923	16.1
514.35	7.6
514.778	15.8
515.205	49.2
515.632	23.6
516.059	24
516.486	5.6
516.914	15.4
517.341	8.5
517.768	33.9
518.194	11.8
518.621	7.5
519.048	26.1
519.475	28.8
519.902	26.5
520.328	28.5
520.755	0
521.181	22.7
521.608	17
522.034	17.7
522.461	3
522.887	32.3
523.313	33.2
523.739	15
524.165	16.3
524.592	26.9
525.018	31.8
525.444	25
525.869	22.4
526.295	-17.3
526.721	1.3
527.147	1.4
527.573	22.9
527.998	34.7
528.424	3.5
528.849	8.8
529.275	1.9
529.7	12.1
530.126	34.3
530.551	19
530.976	18.3
531.402	29.5
531.827	8.5
532.252	29.9
532.677	10.1
533.102	25.5
533.527	22
533.952	12.6
534.377	8.8
534.801	20.9
535.226	14.9
535.651	25.7
536.076	26.1
536.5	15.3
536.925	27.3
537.349	3.8
537.773	33.7
538.198	25.5
538.622	39.6
539.046	28.4
539.471	26.5
539.895	32
540.319	32.4
540.743	8.8
541.167	0.5
541.591	-9.1
542.015	14.7
542.438	20.1
542.862	46.1
543.286	16.2
543.71	15.5
544.133	20.7
544.557	21.5
544.98	-5.3
545.404	32.4
545.827	21.3
546.25	-1.9
546.674	11
547.097	36.8
547.52	-0.7
547.943	27
548.366	43.6
548.789	3.1
549.212	12.3
549.635	22.3
550.058	45.2
550.481	28.8
550.903	51
551.326	42.1
551.749	15.1
552.171	10.7
552.594	35.8
553.016	20.5
553.438	34
553.861	28.2
554.283	25.3
554.705	36
555.128	16.2
555.55	3.8
555.972	55.4
556.394	9.3
556.816	35.3
557.238	42.3
557.659	16.8
558.081	-4.2
558.503	26
558.925	22.1
559.346	-0.9
559.768	15.4
560.189	42.1
560.611	25.3
561.032	35.3
561.454	35.8
561.875	20.4
562.296	22.2
562.718	7.2
563.139	43
563.56	18.2
563.981	37
564.402	27.2
564.823	24.5
565.244	35.2
565.664	37.7
566.085	24.8
566.506	35.2
566.927	16.2
567.347	63.5
567.768	36.2
568.188	28
568.609	23.6
569.029	11.8
569.449	3.6
569.87	49.5
570.29	25.3
570.71	23.3
571.13	36.5
571.55	19.5
571.97	46
572.39	22.9
572.81	34.2
573.23	11.5
573.65	46.7
574.069	33.7
574.489	37.9
574.909	34.1
575.328	49
575.748	40.4
576.167	19.8
576.587	15.1
577.006	44.5
577.425	20.5
577.844	30.5
578.264	-3
578.683	28.6
579.102	44.7
579.521	41.5
579.94	32.8
580.359	-11.5
580.778	12.6
581.196	16.5
581.615	43.8
582.034	46.8
582.452	5
582.871	41.7
583.29	24.3
583.708	17.5
584.126	25.3
584.545	9.1
584.963	28.3
585.381	13.5
585.8	20.3
586.218	31.3
586.636	1.3
587.054	36.1
587.472	18.1
587.89	4.6
588.308	15.6
588.725	43
589.143	33.1
589.561	43.8
589.979	21
590.396	32.8
590.814	22.5
591.231	-6.7
591.649	35.6
592.066	29
592.483	12
592.901	2.4
593.318	32
593.735	14.7
594.152	4.6
594.569	2
594.986	33.3
595.403	32.1
595.82	29.5
596.237	27.9
596.654	31.5
597.07	23.8
597.487	23.1
597.904	19.2
598.32	21.8
598.737	-16.8
599.153	1.6
599.57	9.2
599.986	10.3
600.402	29.4
600.818	0.1
601.235	10.5
601.651	23.2
602.067	2.9
602.483	12.8
602.899	19.4
603.315	30.6
603.73	41.1
604.146	19.7
604.562	31
604.978	47.6
605.393	29.1
605.809	21.2
606.224	14.6
606.64	32.3
607.055	36.9
607.471	59.2
607.886	6.9
608.301	-5.9
608.716	36.6
609.131	31
609.547	26.3
609.962	23.4
610.377	24.4
610.791	22.5
611.206	27.6
611.621	20.3
612.036	38.7
612.451	19.6
612.865	36.5
613.28	9.6
613.694	40.2
614.109	25.5
614.523	39.5
614.938	31.3
615.352	22.1
615.766	52.3
616.18	36
616.595	3.9
617.009	23.3
617.423	40
617.837	24
618.251	13
618.664	28.4
619.078	7.8
619.492	39.5
619.906	29.6
620.319	42
620.733	40.8
621.146	14.6
621.56	53
621.973	22.8
622.387	48.5
622.8	34
623.213	26.8
623.627	11.9
624.04	42.7
624.453	35
624.866	39.2
625.279	62.7
625.692	67.1
626.105	41.9
626.518	43.4
626.93	58.3
627.343	54.1
627.756	45
628.168	37.7
628.581	76.5
628.993	82.4
629.406	47.1
629.818	48
630.231	49.2
630.643	57.8
631.055	83
631.467	53.9
631.879	59.8
632.291	61.1
632.703	82.7
633.115	79.8
633.527	101.1
633.939	88.6
634.351	78.9
634.763	109.3
635.174	114
635.586	108.6
635.997	109.5
636.409	136.6
636.82	140.4
637.232	108.6
637.643	145.5
638.054	121.6
638.466	130.2
638.877	176.7
639.288	166.8
639.699	133.5
640.11	154.9
640.521	157.8
640.932	142.8
641.343	151.1
641.753	139.7
642.164	153.8
642.575	167.5
642.986	192.5
643.396	173.2
643.807	157.9
644.217	168.3
644.627	169.9
645.038	172.8
645.448	163
645.858	162.2
646.269	171.9
646.679	199
647.089	166.7
647.499	152.5
647.909	175.8
648.319	134.8
648.728	145.5
649.138	127
649.548	154.5
649.958	143.7
650.367	135.1
650.777	117.8
651.186	124.7
651.596	167.1
652.005	124.7
652.415	117.5
652.824	114.9
653.233	113.4
653.642	106.5
654.052	112.1
654.461	111.5
654.87	100.6
655.279	86.2
655.688	105.1
656.096	72.9
656.505	101.1
656.914	107.5
657.323	98.1
657.731	82.6
658.14	137
658.548	102.1
658.957	89
659.365	74.1
659.774	112.9
660.182	84.5
660.59	106.7
660.998	89.3
661.407	88.9
661.815	81.9
662.223	110.5
662.631	70.5
663.039	98.4
663.446	102.1
663.854	107.3
664.262	102
664.67	82.6
665.077	91.1
665.485	90.1
665.892	71.3
666.3	59.7
666.707	79.2
667.115	75.7
667.522	86.3
667.929	101.3
668.337	57.3
668.744	53.4
669.151	54.9
669.558	75.8
669.965	89.1
670.372	63.7
670.779	47.7
671.185	56.8
671.592	32.7
671.999	46.5
672.405	52.1
672.812	58.7
673.219	40.7
673.625	17.4
674.032	26.2
674.438	51.7
674.844	30.9
675.25	48
675.657	17.9
676.063	24.4
676.469	12.9
676.875	40.5
677.281	27.4
677.687	19.7
678.093	18.4
678.499	13.7
678.904	29.1
679.31	13.1
679.716	24.2
680.121	3.9
680.527	26.2
680.932	42.6
681.338	14.5
681.743	22
682.148	0.1
682.554	26.7
682.959	14.3
683.364	8.9
683.769	1.9
684.174	8.9
684.579	29.9
684.984	11.7
685.389	17.5
685.794	11.2
686.199	32.7
686.603	13
687.008	22.2
687.413	9
687.817	18.7
688.222	-7.1
688.626	21
689.03	0.2
689.435	27.5
689.839	-8.5
690.243	20.7
690.647	11.2
691.051	26.3
691.456	-3.6
691.859	-0.3
692.263	22.5
692.667	4.6
693.071	0.4
693.475	22.8
693.879	17
694.282	13.8
694.686	17.6
695.089	51.5
695.493	40.6
695.896	15
696.3	34.9
696.703	6.2
697.106	16.6
697.509	0.5
697.913	35.5
698.316	0.2
698.719	42.7
699.122	16.9
699.525	13.3
699.928	25.5
700.33	34.4
700.733	34
701.136	11.8
701.539	13.9
701.941	24
702.344	19.9
702.746	16.7
703.149	23.5
703.551	3.1
703.953	4.7
704.356	11.2
704.758	43
705.16	30.2
705.562	-0.1
705.964	23.8
706.366	30
706.768	13.3
707.17	-2.1
707.572	10.9
707.973	35.4
708.375	14.2
708.777	10.7
709.178	19.9
709.58	37.1
709.981	27.2
710.383	19.9
710.784	25.8
711.186	35.8
711.587	2.5
711.988	16.9
712.389	23.9
712.79	34.3
713.191	21.5
713.592	47.7
713.993	4.3
714.394	9.5
714.795	24.1
715.196	-4.5
715.596	1.1
715.997	11.9
716.398	-0.8
716.798	16.7
717.199	20.7
717.599	21.1
718	8.9
718.4	24.2
718.8	12.8
719.2	13.7
719.6	18.2
720.001	29.6
720.401	25.8
720.801	33.2
721.201	31.7
721.6	22
722	37.9
722.4	7.1
722.8	12.8
723.199	-3
723.599	24.6
723.998	8.5
724.398	41.9
724.797	11.2
725.197	-1.8
725.596	7
725.995	11.9
726.394	8
726.794	0.6
727.193	8.6
727.592	14.8
727.991	16.7
728.39	8.8
728.789	10.7
729.187	15.1
729.586	15.2
729.985	17.2
730.383	11.2
730.782	-4.6
731.181	10.8
731.579	42.4
731.977	10.1
732.376	16.6
732.774	14
733.172	3.2
733.571	1
733.969	19.3
734.367	4
734.765	29.3
735.163	17
735.561	7.8
735.959	9.1
736.356	50.3
736.754	28
737.152	2
737.55	35.4
737.947	32.6
738.345	22.9
738.742	26.2
739.14	52
739.537	33.5
739.934	41.8
740.331	31.9
740.729	27.5
741.126	38.2
741.523	40.9
741.92	34.8
742.317	29.1
742.714	31
743.111	35
743.507	23.6
743.904	36.3
744.301	26.7
744.697	40.9
745.094	59.7
745.491	29.9
745.887	41.6
746.283	49.7
746.68	14.9
747.076	35.9
747.472	40.6
747.869	19.2
748.265	31.5
748.661	39.7
749.057	41.5
749.453	54.4
749.849	37.5
750.244	58.5
750.64	57.2
751.036	29.9
751.432	39.7
751.827	53.7
752.223	45
752.618	56.5
753.014	32.3
753.409	45.4
753.805	47.7
754.2	54.7
754.595	52.5
754.99	60.2
755.385	49.1
755.78	53.9
756.175	42.8
756.57	55.1
756.965	58.1
757.36	59
757.755	62.3
758.15	79.7
758.544	74.8
758.939	56.3
759.334	68.9
759.728	103
760.122	83.1
760.517	108.8
760.911	84.7
761.306	98
761.7	83.3
762.094	106.6
762.488	80.7
762.882	73.1
763.276	61.6
763.67	76
764.064	92
764.458	94
764.852	84.1
765.245	98.3
765.639	108.8
766.033	122.2
766.426	116.4
766.82	122.5
767.213	125.2
767.606	103.6
768	102.9
768.393	79.3
768.786	84.4
769.179	107.3
769.572	77.7
769.966	90
770.358	78.2
770.751	74.3
771.144	64
771.537	81.7
771.93	82.4
772.323	81.7
772.715	72.7
773.108	58.7
773.5	64.1
773.893	56.7
774.285	88.9
774.678	39.3
775.07	57.2
775.462	38.1
775.854	35.8
776.247	46.2
776.639	36.7
777.031	62.3
777.423	35.4
777.815	39.3
778.207	61.5
778.598	48.1
778.99	74.4
779.382	56.8
779.773	78.6
780.165	103.3
780.557	75.9
780.948	83.8
781.339	103.2
781.731	65.1
782.122	102.4
782.513	111.3
782.905	77.3
783.296	91.5
783.687	123.2
784.078	85.8
784.469	87.7
784.86	83.8
785.251	58.4
785.641	96.1
786.032	74
786.423	70.6
786.813	91.9
787.204	71.7
787.594	76.5
787.985	67.5
788.375	75
788.766	62.5
789.156	63.8
789.546	111.8
789.936	64.1
790.326	81.4
790.717	81.7
791.107	58.9
791.497	75.5
791.886	66
792.276	49.1
792.666	47.6
793.056	51.4
793.445	46.1
793.835	50.3
794.225	38.5
794.614	45.6
795.004	66.5
795.393	78.9
795.782	39.3
796.172	30.5
796.561	54.4
796.95	41.5
797.339	51.3
797.728	55.9
798.117	51.8
798.506	34.9
798.895	46.6
799.284	29.6
799.673	84.2
800.061	44.1
800.45	43.7
800.839	23.2
801.227	43.7
801.616	9.8
802.004	25.7
802.392	41.8
802.781	28
803.169	30.5
803.557	23.9
803.945	45.2
804.333	27.4
804.721	34.4
805.109	26.2
805.497	47.4
805.885	23.6
806.273	21.3
806.661	18.1
807.048	9.8
807.436	26.3
807.824	34.4
808.211	22.8
808.599	21.6
808.986	23
809.373	40.9
809.761	43.1
810.148	26.8
810.535	25.4
810.922	36.1
811.309	37.3
811.696	17.4
812.083	36
812.47	17.6
812.857	17
813.244	23.7
813.631	21.9
814.017	58
814.404	16.4
814.791	33.5
815.177	44.1
815.564	43.6
815.95	11.3
816.336	32.5
816.723	20.6
817.109	30.1
817.495	38.2
817.881	14.4
818.267	16.1
818.653	19.6
819.039	22.9
819.425	24.4
819.811	10.4
820.197	27.9
820.582	10.9
820.968	43.4
821.354	20.2
821.739	15.1
822.125	11.9
822.51	12.8
822.895	27.3
823.281	14.9
823.666	35.2
824.051	34
824.436	-7.1
824.822	22.8
825.207	29.5
825.592	5.2
825.976	9.9
826.361	17.2
826.746	33
827.131	17.4
827.516	38.6
827.9	24.7
828.285	21
828.669	9.7
829.054	19.4
829.438	23.7
829.823	12.9
830.207	23.9
830.591	36.1
830.975	42.2
831.36	36.2
831.744	8.4
832.128	42.2
832.512	13.8
832.895	30.8
833.279	19.5
833.663	35.5
834.047	-3.2
834.431	24.3
834.814	33.2
835.198	25.2
835.581	24.3
835.965	5.2
836.348	22.4
836.731	16.2
837.115	14
837.498	2.8
837.881	36.9
838.264	28.4
838.647	-23.2
839.03	17.9
839.413	11.8
839.796	11.5
840.179	7.7
840.562	11.1
840.944	24.3
841.327	39.8
841.71	30.9
842.092	34.9
842.475	4.3
842.857	28.6
843.24	30.3
843.622	20.4
844.004	18.2
844.386	25.7
844.769	35.1
845.151	9.7
845.533	40.3
845.915	19.4
846.297	27.1
846.678	51.3
847.06	4.8
847.442	36.9
847.824	29.4
848.205	22.5
848.587	17.5
848.968	18.1
849.35	42.5
849.731	34.7
850.113	10.9
850.494	16.3
850.875	16
851.256	23.2
851.638	24.1
852.019	1.4
852.4	11.8
852.781	47
853.161	22.3
853.542	31.1
853.923	36.4
854.304	26.3
854.685	12.5
855.065	8.6
855.446	19.2
855.826	3
856.207	1.2
856.587	33.5
856.967	20.7
857.348	16.5
857.728	13.6
858.108	10.1
858.488	10.8
858.868	14.7
859.248	-8.6
859.628	12.4
860.008	27.7
860.388	-12.1
860.768	13
861.147	0.1
861.527	19.5
861.907	19.7
862.286	22.8
862.666	32.8
863.045	8.5
863.424	37.6
863.804	18.4
864.183	16.1
864.562	29.9
864.941	12.8
865.32	38.7
865.699	30.5
866.078	22.9
866.457	27.9
866.836	21.8
867.215	29.6
867.594	12.5
867.972	-0.4
868.351	31.7
868.729	28.4
869.108	10.3
869.486	19.1
869.865	23.1
870.243	22.3
870.621	8.2
871	13.5
871.378	25.7
871.756	24.5
872.134	37.2
872.512	18.9
872.89	20
873.268	17.4
873.646	35.1
874.023	14.6
874.401	7.5
874.779	16.9
875.156	17.2
875.534	3.6
875.911	7.3
876.289	45.6
876.666	15.4
877.043	26.8
877.421	20.8
877.798	49.9
878.175	23.1
878.552	15
878.929	19.1
879.306	25.6
879.683	36.8
880.06	30.2
880.437	24.2
880.813	17.2
881.19	23.1
881.567	18.7
881.943	4.4
882.32	16
882.696	18.5
883.073	30.4
883.449	25.3
883.825	20.8
884.202	21.6
884.578	34.4
884.954	16.3
885.33	8.4
885.706	26
886.082	26.9
886.458	14.7
886.834	27
887.209	3.4
887.585	1.9
887.961	8.9
888.336	31
888.712	30
889.087	24.7
889.463	-3.9
889.838	24.6
890.213	18.9
890.589	15.6
890.964	23.1
891.339	20
891.714	14.1
892.089	30.2
892.464	29.8
892.839	31.7
893.214	11.5
893.589	14.8
893.963	28.2
894.338	12.4
894.713	20.5
895.087	52.6
895.462	22
895.836	16.9
896.211	16.7
896.585	12.1
896.959	13
897.334	14.7
897.708	13.9
898.082	18.5
898.456	24.7
898.83	13
899.204	10.6
899.578	-5.3
899.952	47.2
900.325	20.3
900.699	7
901.073	17.7
901.446	40.6
901.82	13.9
902.193	12.6
902.567	26.8
902.94	12.8
903.313	24.4
903.687	26
904.06	10.7
904.433	9
904.806	30.1
905.179	11
905.552	-5.3
905.925	19
906.298	20.5
906.671	18.5
907.043	18.4
907.416	19.6
907.789	16.2
908.161	31.5
908.534	29.2
908.906	35.5
909.279	14.5
909.651	41.4
910.023	7.2
910.396	30.9
910.768	26.1
911.14	28
911.512	12.7
911.884	12.5
912.256	13.1
912.628	29.2
912.999	37.2
913.371	14.5
913.743	30.8
914.115	21.5
914.486	16
914.858	28.2
915.229	6.4
915.601	30.9
915.972	16.3
916.343	20.1
916.715	38.6
917.086	14.2
917.457	41.4
917.828	34.7
918.199	28.9
918.57	20.4
918.941	-0.9
919.312	47.7
919.682	23.4
920.053	19.6
920.424	11.4
920.794	43.6
921.165	13.7
921.536	29.6
921.906	37.8
922.276	4.1
922.647	40.9
923.017	24.3
923.387	13.5
923.757	27.5
924.127	25.4
924.497	27.1
924.867	34.1
925.237	30.1
925.607	7.9
925.977	34.1
926.347	38.8
926.716	47.1
927.086	-5.9
927.456	33.7
927.825	39.9
928.195	23.3
928.564	32.9
928.933	32.6
929.303	16.9
929.672	35.2
930.041	25.6
930.41	42.7
930.779	17
931.148	19.9
931.517	10.9
931.886	8.7
932.255	33.3
932.624	42.1
932.993	28.1
933.361	43.7
933.73	36.6
934.098	33.3
934.467	23.7
934.835	12.2
935.204	30.5
935.572	34.9
935.94	17.4
936.308	17.2
936.677	23.8
937.045	25.4
937.413	19.1
937.781	41.5
938.149	23.5
938.516	35.6
938.884	13.2
939.252	8.5
939.62	18.9
939.987	36.7
940.355	35.7
940.722	28.7
941.09	28.5
941.457	6.3
941.825	43.7
942.192	26.3
942.559	19.9
942.926	23
943.293	38.6
943.66	22.2
944.027	-1.2
944.394	20.1
944.761	32.8
945.128	28
945.495	25.4
945.861	33.3
946.228	38.2
946.595	42.7
946.961	20.5
947.328	15.6
947.694	27.8
948.06	-6
948.427	25.4
948.793	46
949.159	32.9
949.525	41.3
949.891	2.4
950.257	42.7
950.623	25.3
950.989	17
951.355	44.4
951.721	20.6
952.087	12.8
952.452	26.4
952.818	27.3
953.183	14.3
953.549	24.7
953.914	51.3
954.28	34
954.645	33.6
955.01	37.5
955.375	13.3
955.741	25.7
956.106	42.4
956.471	62.1
956.836	31.7
957.201	27.3
957.566	40
957.93	32.7
958.295	19.6
958.66	-0.4
959.024	13
959.389	8
959.753	6.8
960.118	29.7
960.482	30.6
960.847	23.8
961.211	35.1
961.575	1.6
961.939	13.7
962.303	29.5
962.667	39.7
963.031	18
963.395	1.2
963.759	42.3
964.123	11.9
964.487	8.5
964.851	10.9
965.214	28.4
965.578	27.4
965.941	-2.9
966.305	15.5
966.668	5.7
967.032	12.7
967.395	8.9
967.758	31.1
968.121	20
968.484	44.3
968.847	26.2
969.21	38.6
969.573	8
969.936	20
970.299	23
970.662	30.5
971.025	19.3
971.387	22.5
971.75	10.6
972.112	5.1
972.475	13.2
972.837	36.6
973.2	19.3
973.562	18.2
973.924	17.8
974.286	29.4
974.649	30.1
975.011	20
975.373	0.3
975.735	42.5
976.097	19.3
976.458	10.7
976.82	10.3
977.182	22.2
977.544	7.1
977.905	31.4
978.267	7.1
978.628	-6.6
978.99	16.3
979.351	8.1
979.712	24
980.074	8.3
980.435	25.8
980.796	3.3
981.157	-0.5
981.518	-2
981.879	9.8
982.24	4.5
982.601	16.6
982.962	-8.3
983.323	20
983.683	25.5
984.044	19.1
984.404	-14.7
984.765	24.6
985.125	12.1
985.486	15.6
985.846	25.5
986.206	22.5
986.567	32.2
986.927	37.8
987.287	38.8
987.647	20.4
988.007	31.9
988.367	14.9
988.727	0
989.087	13.1
989.446	34
989.806	22.1
990.166	10.8
990.525	17.4
990.885	19
991.244	-2.9
991.604	24.3
991.963	3.5
992.322	33
992.682	6.6
993.041	-7.8
993.4	13.7
993.759	21.6
994.118	10.4
994.477	35.6
994.836	29.1
995.195	23.8
995.553	2.1
995.912	22.8
996.271	27
996.629	26.6
996.988	14.7
997.346	32.5
997.705	20.8
998.063	21.9
998.422	11.4
998.78	17.3
999.138	23
999.496	13.2
999.854	19.2
1000.212	33.2
1000.57	27.5
1000.928	28.9
1001.286	29
1001.644	22.4
1002.001	19.2
1002.359	29.9
1002.717	19.8
1003.074	26.4
1003.432	34.3
1003.789	15.6
1004.147	22.5
1004.504	5.5
1004.861	25.9
1005.218	31.6
1005.576	15.5
1005.933	19.4
1006.29	35.5
1006.647	-3.9
1007.004	4.9
1007.36	9.1
1007.717	34.2
1008.074	-3.9
1008.431	7.7
1008.787	27.8
1009.144	10.9
1009.5	28.6
1009.857	19.1
1010.213	-4.5
1010.569	37.1
1010.926	25.5
1011.282	14.4
1011.638	34.1
1011.994	6.3
1012.35	14
1012.706	7.1
1013.062	7.9
1013.418	13.4
1013.774	-1.5
1014.13	-0.2
1014.485	17.2
1014.841	24
1015.197	4.1
1015.552	4
1015.907	9.4
1016.263	-9.7
1016.618	39.8
1016.974	7.4
1017.329	4.8
1017.684	24.6
1018.039	14
1018.394	21.8
1018.749	26.6
1019.104	16.7
1019.459	29.1
1019.814	26.2
1020.168	11.1
1020.523	17.9
1020.878	11.6
1021.232	34.1
1021.587	21.9
1021.941	43
1022.296	2.6
1022.65	-4.9
1023.004	-2.7
1023.359	11.2
1023.713	24.4
1024.067	-4.7
1024.421	-4.4
1024.775	20.7
1025.129	-5.2
1025.483	29.8
1025.837	-21
1026.19	24
1026.544	28.8
1026.898	10.6
1027.251	2.2
1027.605	-9.9
1027.958	34.4
1028.312	15.4
1028.665	-2.5
1029.018	20.5
1029.372	-2.6
1029.725	11.3
1030.078	4.8
1030.431	3.6
1030.784	-10.9
1031.137	29.4
1031.49	19.9
1031.843	13.4
1032.195	3.6
1032.548	0
1032.901	12.2
1033.253	12.2
1033.606	16.9
1033.958	-1.6
1034.311	14
1034.663	19.3
1035.016	-16.7
1035.368	25.2
1035.72	30.7
1036.072	8.3
1036.424	15.7
1036.776	-8.3
1037.128	22
1037.48	-9.3
