Data from 1.4bar_Subt2__0__17-09-23-850.txt Node

Date: Thu Jan 06 17:09:23 CET 2022
User: fsatto
Spectrometer: OFX01956
Trigger mode: 0
Integration Time (sec): 6.000000E-3
Scans to average: 10
Nonlinearity correction enabled: false
Boxcar width: 0
Storing dark spectrum: false
XAxis mode: Wavelengths
Number of Pixels in Spectrum: 2136
>>>>>Begin Spectral Data<<<<<
158.236	9.9
158.705	2.9
159.174	10.7
159.643	23.4
160.112	21.8
160.582	23.7
161.051	5.8
161.52	21.3
161.988	14.9
162.457	21.3
162.926	15.7
163.395	35.9
163.864	20
164.332	-0.8
164.801	8.5
165.269	21.5
165.738	22.7
166.206	15.4
166.675	37.1
167.143	12.5
167.612	18.6
168.08	12.7
168.548	11
169.016	24.9
169.484	22.1
169.952	35.3
170.42	27.7
170.888	25.8
171.356	10.6
171.824	9
172.292	19.3
172.759	16.8
173.227	2.9
173.695	16.2
174.162	29.9
174.63	29.4
175.097	20.7
175.565	29.5
176.032	24
176.499	10.7
176.967	25.6
177.434	19.1
177.901	17.4
178.368	27.5
178.835	24.7
179.302	39.8
179.769	31.1
180.236	5.6
180.703	23.6
181.17	26.9
181.637	20.2
182.103	11.4
182.57	10.3
183.036	17.8
183.503	25.3
183.97	-0.5
184.436	13.4
184.902	17.6
185.369	24.8
185.835	17.3
186.301	29.9
186.767	12.8
187.234	23.4
187.7	28.7
188.166	14
188.632	11.9
189.098	25
189.563	23.8
190.029	2.4
190.495	22.5
190.961	24
191.426	20
191.892	29.6
192.358	-0.8
192.823	5.9
193.289	8
193.754	12.1
194.219	8.7
194.685	33.4
195.15	8.2
195.615	19.1
196.08	16
196.545	14.8
197.01	-2.3
197.475	21.2
197.94	14.2
198.405	12.3
198.87	-5.7
199.335	27.3
199.8	7.9
200.264	62.7
200.729	65.8
201.193	67.4
201.658	72.5
202.122	57.1
202.587	40.8
203.051	82.3
203.516	100.8
203.98	85.8
204.444	76.8
204.908	66.8
205.372	110
205.836	120.3
206.3	94.3
206.764	85.3
207.228	78.3
207.692	62.7
208.156	100.3
208.62	89.7
209.083	98
209.547	98.9
210.011	109.5
210.474	116.2
210.938	108.8
211.401	124.1
211.864	150.5
212.328	188.3
212.791	211.1
213.254	240.2
213.717	252.5
214.181	322.2
214.644	380.2
215.107	448.5
215.57	483.8
216.033	601.9
216.495	723.6
216.958	840.3
217.421	958.7
217.884	1062.7
218.346	1196.2
218.809	1341.6
219.272	1371.7
219.734	1452.8
220.196	1498.4
220.659	1520.9
221.121	1550.5
221.584	1664
222.046	1768.2
222.508	1858.2
222.97	1873.4
223.432	1874.1
223.894	1976.4
224.356	2107.7
224.818	2234.6
225.28	2244.4
225.742	2288.3
226.204	2547.9
226.665	2727.9
227.127	2884.1
227.589	2925.4
228.05	2925.1
228.512	2935.3
228.973	2925.1
229.435	2873.9
229.896	2917
230.357	3237.7
230.818	3648.3
231.28	3824.8
231.741	3920.2
232.202	3861.8
232.663	3752.7
233.124	3929.7
233.585	4315.1
234.046	4633.3
234.507	4763.8
234.967	4408.2
235.428	4017.1
235.889	3818.2
236.349	4063
236.81	4261.2
237.271	4051.2
237.731	3573.1
238.191	3132.4
238.652	3100.9
239.112	3547.4
239.572	4334.4
240.033	4779.9
240.493	4402.9
240.953	3758.5
241.413	3751.2
241.873	4439
242.333	5105.5
242.793	5100.8
243.253	4408.1
243.712	3722.9
244.172	3785.8
244.632	4277.7
245.092	4917.7
245.551	4698.6
246.011	3791.9
246.47	2862.8
246.93	2687
247.389	3459.9
247.848	4457.3
248.308	4947.2
248.767	4708.8
249.226	4052.3
249.685	3744
250.144	4476.9
250.603	6192.7
251.062	7565.3
251.521	7524
251.98	6498.1
252.439	5603.8
252.897	5714.8
253.356	7223.9
253.815	8821.6
254.273	8954.5
254.732	8093.7
255.19	6614.9
255.649	5761.7
256.107	5976.1
256.566	6693.3
257.024	7341.9
257.482	6881.7
257.94	5786.8
258.398	5247.5
258.856	5283.8
259.315	5681.5
259.772	6027.6
260.23	5960.2
260.688	5298.6
261.146	4422.4
261.604	3997.9
262.062	4340.1
262.519	5209.9
262.977	5757.2
263.434	5508
263.892	5118.5
264.349	5113.2
264.807	5817.7
265.264	6651.9
265.721	7250.7
266.179	7250.1
266.636	6582.1
267.093	6135.8
267.55	6523.9
268.007	7671.4
268.464	8575.7
268.921	8824
269.378	7922.9
269.835	7086.2
270.291	6766.6
270.748	6871.7
271.205	7392.5
271.661	7465.7
272.118	6908.6
272.574	6530
273.031	6196.8
273.487	5823.6
273.944	5742.5
274.4	6089.7
274.856	6376.2
275.312	6062.9
275.768	5706.2
276.225	5601.8
276.681	5660.3
277.137	5772
277.593	5900.7
278.048	5926.2
278.504	5839.9
278.96	5696.3
279.416	5293.7
279.871	5079.4
280.327	5102.1
280.783	5494.4
281.238	5723.5
281.694	5591.5
282.149	5161.5
282.604	4783.5
283.06	4559.4
283.515	4478.4
283.97	4782.2
284.425	4817.1
284.88	4689.8
285.335	4339
285.79	3761
286.245	3349.7
286.7	3470.9
287.155	3874.6
287.61	4114.3
288.064	4292.1
288.519	4446.5
288.974	4366.2
289.428	4020
289.883	3940
290.337	4172.9
290.792	4556.6
291.246	4901.8
291.7	5126.1
292.155	5129.7
292.609	5066
293.063	4959
293.517	5155.6
293.971	5686.2
294.425	6098.9
294.879	6343
295.333	6239.1
295.787	6096.5
296.241	5999.3
296.694	6084
297.148	6430.4
297.602	6810.3
298.055	6967
298.509	6731.5
298.962	6192
299.416	5859.7
299.869	5737.2
300.322	5860.2
300.775	5869.1
301.229	5835.6
301.682	5697.2
302.135	5398.6
302.588	5091.1
303.041	4984.5
303.494	4870.9
303.947	4719.9
304.4	4566.8
304.852	4370
305.305	4178.5
305.758	3856.6
306.21	3526.5
306.663	3335.7
307.115	3173.8
307.568	3162
308.02	3114.1
308.473	2948
308.925	2748.8
309.377	2614.7
309.829	2557.3
310.282	2438.6
310.734	2446.8
311.186	2407.8
311.638	2308.3
312.09	2208.3
312.542	2160.1
312.993	2080.2
313.445	2013.4
313.897	2028.1
314.349	1932.4
314.8	1929.3
315.252	1858.1
315.703	1836
316.155	1782.7
316.606	1748.1
317.058	1704.7
317.509	1734.2
317.96	1720.6
318.411	1678
318.863	1688.4
319.314	1708
319.765	1687.7
320.216	1636
320.667	1565.3
321.117	1546.2
321.568	1590.2
322.019	1640.8
322.47	1607
322.921	1560.4
323.371	1463
323.822	1347.3
324.272	1275.2
324.723	1190.3
325.173	1141.4
325.623	1074.5
326.074	1028.2
326.524	1000.8
326.974	1142.7
327.424	1515.1
327.874	1766.3
328.325	1424.3
328.775	1046.6
329.224	927.4
329.674	909.8
330.124	900.1
330.574	840.4
331.024	810.8
331.473	753.5
331.923	708.9
332.373	632.2
332.822	600.3
333.272	563.7
333.721	546.7
334.17	526.2
334.62	532.9
335.069	499.8
335.518	471.9
335.967	446.6
336.416	398.3
336.865	389.3
337.314	384.3
337.763	335.2
338.212	322.4
338.661	329.7
339.11	296.2
339.558	274.5
340.007	292.2
340.456	299.1
340.904	298.9
341.353	279.6
341.801	252.5
342.25	244.6
342.698	225.4
343.146	240
343.595	179.1
344.043	213.7
344.491	193.3
344.939	181
345.387	177.4
345.835	164.8
346.283	160.8
346.731	142.2
347.179	119.8
347.626	123.5
348.074	127.5
348.522	115.3
348.969	109
349.417	66.2
349.865	126.5
350.312	108.4
350.759	102.7
351.207	78.1
351.654	73.5
352.101	62.1
352.548	88
352.996	68.4
353.443	85.2
353.89	68.9
354.337	47.9
354.784	52.7
355.231	76.6
355.677	61.9
356.124	36.8
356.571	66.2
357.018	53
357.464	60.6
357.911	65.3
358.357	41.2
358.804	36.7
359.25	59.6
359.696	32.5
360.143	31.8
360.589	33.3
361.035	27.4
361.481	48
361.927	33.4
362.373	42.3
362.819	50.9
363.265	20
363.711	19.4
364.157	29.8
364.603	4.5
365.048	31.1
365.494	28.6
365.94	40.9
366.385	42.4
366.831	25.8
367.276	6.2
367.722	30.5
368.167	17.9
368.612	11.6
369.057	20
369.503	21.8
369.948	-1.4
370.393	37.7
370.838	7.3
371.283	38.8
371.728	25.6
372.173	4.2
372.617	5.9
373.062	-15.2
373.507	10
373.951	12.2
374.396	25.7
374.841	9.7
375.285	20.1
375.729	10.5
376.174	1.7
376.618	26.6
377.062	5.8
377.507	18.5
377.951	11.5
378.395	48.9
378.839	3.5
379.283	25
379.727	19.4
380.171	7.9
380.615	23.3
381.059	9.7
381.502	22.3
381.946	10.9
382.39	34.3
382.833	17.8
383.277	-5.8
383.72	24.6
384.164	27.1
384.607	7.4
385.05	21.3
385.494	8.1
385.937	9.9
386.38	8.8
386.823	39.2
387.266	36.1
387.709	5.3
388.152	30
388.595	0.3
389.038	3.6
389.481	10.4
389.923	6.6
390.366	19.5
390.809	18.9
391.251	14.6
391.694	25.6
392.136	18.6
392.579	0.2
393.021	-6.1
393.463	6.1
393.906	-18.7
394.348	12.3
394.79	15
395.232	9.2
395.674	18.4
396.116	8.2
396.558	28.8
397	11
397.442	34.8
397.884	29.4
398.325	11.5
398.767	21.6
399.209	8.4
399.65	14
400.092	23.2
400.533	27
400.974	11.3
401.416	9.1
401.857	3.7
402.298	32.5
402.74	19.3
403.181	9.6
403.622	19.7
404.063	34.8
404.504	9.8
404.945	17.5
405.386	11.8
405.826	20
406.267	8.6
406.708	11.2
407.149	17.3
407.589	16.3
408.03	-10
408.47	1.3
408.911	13.7
409.351	1.4
409.791	16.8
410.232	10.5
410.672	7.9
411.112	7.7
411.552	10.7
411.992	23.9
412.432	21.7
412.872	24.6
413.312	27
413.752	15.2
414.192	11.1
414.632	29.6
415.071	-6.5
415.511	26.4
415.951	2.8
416.39	16.6
416.83	25.1
417.269	12.6
417.708	-3.2
418.148	11.4
418.587	14
419.026	9.2
419.465	0.6
419.904	41.9
420.344	29.1
420.783	16.4
421.221	21.1
421.66	1.4
422.099	35.5
422.538	15.7
422.977	24.8
423.415	16.6
423.854	13.2
424.293	13.1
424.731	2.7
425.17	31.8
425.608	7.3
426.046	27
426.485	-0.4
426.923	21.2
427.361	32.6
427.799	19.1
428.237	10.1
428.675	23.2
429.113	15.7
429.551	13.4
429.989	12.4
430.427	9
430.865	13.9
431.303	11.5
431.74	3.8
432.178	21.3
432.615	26.7
433.053	12.4
433.49	24.7
433.928	24
434.365	14.4
434.802	11.3
435.24	33.3
435.677	17.3
436.114	10.3
436.551	29.3
436.988	2
437.425	8.3
437.862	8.7
438.299	3.7
438.736	17.8
439.172	0.7
439.609	13.5
440.046	14.1
440.482	30.3
440.919	24.5
441.355	14
441.792	19.2
442.228	-3.6
442.665	7.6
443.101	19.5
443.537	42.7
443.973	25.9
444.409	32
444.845	31.5
445.281	7.2
445.717	22.3
446.153	21
446.589	21.7
447.025	9
447.461	21.6
447.896	17.1
448.332	28.1
448.768	25.3
449.203	29.8
449.639	7.6
450.074	-0.3
450.509	24.6
450.945	25.9
451.38	19.9
451.815	24.3
452.25	16.8
452.685	13.8
453.12	28.9
453.555	33.6
453.99	12
454.425	40.7
454.86	30.2
455.295	4.9
455.73	23
456.164	-10.8
456.599	31
457.033	25.7
457.468	25.6
457.902	17.9
458.337	30.9
458.771	32.1
459.205	34.4
459.64	26.5
460.074	36.2
460.508	28.9
460.942	26.5
461.376	8.9
461.81	30.3
462.244	38.6
462.678	10.4
463.112	20
463.545	9.5
463.979	18.7
464.413	19.6
464.846	19
465.28	19.7
465.713	23.2
466.147	41.5
466.58	31
467.014	7.6
467.447	21.4
467.88	12.6
468.313	30.8
468.746	40.4
469.179	21.4
469.612	11.4
470.045	33.3
470.478	32.5
470.911	17.9
471.344	12.3
471.777	29.8
472.209	22.8
472.642	22.9
473.074	16.1
473.507	49.6
473.939	44.2
474.372	35.6
474.804	11.2
475.236	18.6
475.669	40.1
476.101	38.7
476.533	59.6
476.965	10.9
477.397	18.4
477.829	24.4
478.261	21.7
478.693	35.3
479.125	28.4
479.557	29.5
479.988	23.3
480.42	38.4
480.852	29.3
481.283	35.3
481.715	20.3
482.146	28.4
482.577	35.4
483.009	8.5
483.44	28.4
483.871	40.1
484.302	22.4
484.734	30.1
485.165	36.3
485.596	21.1
486.027	49.1
486.457	38.9
486.888	32.4
487.319	34.1
487.75	31.5
488.181	59.6
488.611	24.2
489.042	25.8
489.472	32
489.903	38
490.333	20
490.764	8.7
491.194	43.8
491.624	34.5
492.054	26.5
492.484	14.4
492.915	22
493.345	18
493.775	21.9
494.204	5.1
494.634	31.2
495.064	14.5
495.494	45.8
495.924	12.9
496.353	23.3
496.783	24
497.212	23.7
497.642	1
498.071	30.5
498.501	18.3
498.93	17.3
499.359	25.9
499.789	18.2
500.218	38.1
500.647	31.2
501.076	37.5
501.505	33.2
501.934	11.9
502.363	28.5
502.792	34.8
503.221	38.9
503.649	14.2
504.078	24.9
504.507	46.9
504.935	21.1
505.364	23.8
505.792	30.1
506.221	23.1
506.649	13.8
507.077	17.1
507.506	46.8
507.934	43.4
508.362	3.7
508.79	-1.3
509.218	17.9
509.646	-4.6
510.074	13.8
510.502	6.2
510.93	13.8
511.357	19.3
511.785	19.2
512.213	5
512.64	17.4
513.068	30
513.496	18.1
513.923	17
514.35	3.8
514.778	7.8
515.205	51.3
515.632	15.7
516.059	17.4
516.486	3.9
516.914	23.4
517.341	12.6
517.768	32.7
518.194	11.5
518.621	7.5
519.048	18.1
519.475	31
519.902	22.7
520.328	33
520.755	6.5
521.181	22.9
521.608	8.4
522.034	11
522.461	5.4
522.887	33
523.313	28.2
523.739	20.5
524.165	24.3
524.592	23.5
525.018	17.7
525.444	20.5
525.869	20.4
526.295	-9.7
526.721	8.3
527.147	15.1
527.573	26.2
527.998	35.9
528.424	1.2
528.849	-6.7
529.275	6.1
529.7	18.1
530.126	21.1
530.551	19.7
530.976	21
531.402	36.1
531.827	16.4
532.252	26.7
532.677	3.4
533.102	27.3
533.527	18.3
533.952	6.6
534.377	10.1
534.801	20.1
535.226	22.3
535.651	22.5
536.076	20.6
536.5	11.7
536.925	31.1
537.349	3.7
537.773	30.7
538.198	23.4
538.622	28.4
539.046	25.4
539.471	29.1
539.895	30.4
540.319	25
540.743	4.2
541.167	5.4
541.591	-9.1
542.015	8.5
542.438	17.6
542.862	39.4
543.286	9.7
543.71	20.1
544.133	16.5
544.557	22.8
544.98	-1.2
545.404	30.1
545.827	21.9
546.25	-3.9
546.674	17.4
547.097	36.1
547.52	-0.6
547.943	25.7
548.366	41.2
548.789	-6.2
549.212	6.8
549.635	23
550.058	43.1
550.481	34.1
550.903	45.8
551.326	30
551.749	13.2
552.171	8.6
552.594	36.3
553.016	18.3
553.438	39
553.861	28.6
554.283	26
554.705	28.7
555.128	19.8
555.55	2.2
555.972	51.2
556.394	5.5
556.816	28.8
557.238	42.9
557.659	12.2
558.081	6.8
558.503	25.9
558.925	27.9
559.346	-1.9
559.768	21.8
560.189	37.4
560.611	17.6
561.032	27.8
561.454	31.9
561.875	15.3
562.296	19.1
562.718	2
563.139	40
563.56	10.3
563.981	37.8
564.402	16.5
564.823	22
565.244	34.1
565.664	37.8
566.085	27
566.506	29.1
566.927	20.5
567.347	52.4
567.768	35
568.188	32.2
568.609	28
569.029	11.9
569.449	4.1
569.87	52.4
570.29	27
570.71	25.6
571.13	35.9
571.55	21.5
571.97	45.9
572.39	18.1
572.81	37.9
573.23	4.6
573.65	42.9
574.069	29.3
574.489	42.4
574.909	21
575.328	42.8
575.748	33.1
576.167	9.7
576.587	3.8
577.006	44.5
577.425	13.9
577.844	28.3
578.264	-10.1
578.683	21
579.102	38.9
579.521	39
579.94	32.3
580.359	-14.2
580.778	22.7
581.196	10.1
581.615	42.1
582.034	36.2
582.452	2.4
582.871	36.4
583.29	27.9
583.708	18
584.126	19.5
584.545	12.5
584.963	24.3
585.381	23.3
585.8	17.2
586.218	19.3
586.636	-3.9
587.054	37.9
587.472	15.4
587.89	1.7
588.308	10.9
588.725	41.7
589.143	36.3
589.561	40.7
589.979	25
590.396	38.8
590.814	8.4
591.231	-12.1
591.649	28.3
592.066	20.5
592.483	6.4
592.901	9.9
593.318	25.4
593.735	12.4
594.152	-8.2
594.569	-8.1
594.986	26.5
595.403	33.5
595.82	19.1
596.237	31.1
596.654	29.1
597.07	24.3
597.487	7.2
597.904	18.3
598.32	10.6
598.737	-15.8
599.153	-4.2
599.57	18.5
599.986	11.2
600.402	13.7
600.818	3.4
601.235	3.3
601.651	16.6
602.067	6.6
602.483	6.9
602.899	28.4
603.315	33.9
603.73	38.7
604.146	21.5
604.562	38.5
604.978	42.2
605.393	20.8
605.809	19
606.224	1.2
606.64	34.5
607.055	43
607.471	50.8
607.886	0.8
608.301	1.9
608.716	42.3
609.131	29
609.547	31.5
609.962	18.8
610.377	27.1
610.791	17.8
611.206	27.1
611.621	21.2
612.036	37.7
612.451	16.9
612.865	32.2
613.28	2.2
613.694	40.5
614.109	33.5
614.523	37.5
614.938	30.7
615.352	23.3
615.766	54.9
616.18	33.7
616.595	0.5
617.009	33.1
617.423	45.4
617.837	19.2
618.251	10.2
618.664	20.7
619.078	14.7
619.492	51.7
619.906	36
620.319	38.3
620.733	42.2
621.146	17.7
621.56	60.7
621.973	12.2
622.387	50.6
622.8	43.9
623.213	30.5
623.627	21.4
624.04	54.1
624.453	32.7
624.866	36.3
625.279	67.4
625.692	74.8
626.105	64.4
626.518	39.9
626.93	62.3
627.343	55.8
627.756	58.2
628.168	38.6
628.581	86.2
628.993	80.3
629.406	51.1
629.818	50.8
630.231	61.9
630.643	66.5
631.055	98.3
631.467	70.3
631.879	77.4
632.291	78.2
632.703	100.4
633.115	104.4
633.527	119
633.939	112.2
634.351	111
634.763	142
635.174	149.5
635.586	158.1
635.997	158.6
636.409	173.3
636.82	186.5
637.232	156.7
637.643	197.8
638.054	179.7
638.466	178.4
638.877	216.9
639.288	211.6
639.699	181.4
640.11	210
640.521	211.6
640.932	187.2
641.343	193
641.753	201
642.164	207.1
642.575	226.2
642.986	240
643.396	204.4
643.807	218.1
644.217	219.2
644.627	207.5
645.038	213.1
645.448	217.6
645.858	208.2
646.269	209.1
646.679	222.8
647.089	203.5
647.499	183.1
647.909	203.8
648.319	165.1
648.728	174
649.138	146.2
649.548	176.2
649.958	163.8
650.367	144.7
650.777	141.9
651.186	141.5
651.596	180.9
652.005	132.7
652.415	115.5
652.824	126
653.233	103.4
653.642	108.7
654.052	126.8
654.461	111
654.87	101.8
655.279	91.5
655.688	111
656.096	75.6
656.505	98.1
656.914	96
657.323	103.8
657.731	90.9
658.14	135.2
658.548	100
658.957	102.5
659.365	86.9
659.774	114.9
660.182	103.2
660.59	108.4
660.998	106.9
661.407	107.1
661.815	94.2
662.223	120.4
662.631	82.1
663.039	115.1
663.446	113.6
663.854	121.5
664.262	113.4
664.67	108.3
665.077	112.2
665.485	106.2
665.892	84.6
666.3	88.7
666.707	99.4
667.115	78.2
667.522	90.3
667.929	111.9
668.337	68.8
668.744	65
669.151	58.3
669.558	80.9
669.965	95.2
670.372	64.2
670.779	52
671.185	55
671.592	47.2
671.999	55
672.405	45.7
672.812	58.4
673.219	47.1
673.625	19.6
674.032	17.5
674.438	42.8
674.844	24.3
675.25	45.8
675.657	15.8
676.063	25.6
676.469	22
676.875	44.4
677.281	26.5
677.687	15.8
678.093	18.9
678.499	20.7
678.904	28.3
679.31	11.9
679.716	29.1
680.121	-4.1
680.527	20.9
680.932	45.5
681.338	15.3
681.743	19
682.148	-8
682.554	29.4
682.959	18.1
683.364	5.1
683.769	2.4
684.174	7
684.579	19.2
684.984	10.7
685.389	20.1
685.794	18.7
686.199	36.8
686.603	5
687.008	25.5
687.413	20.9
687.817	9
688.222	-8.1
688.626	16.6
689.03	8.6
689.435	20.2
689.839	-5.3
690.243	17.6
690.647	20.6
691.051	22.5
691.456	-1.9
691.859	-9.5
692.263	16.1
692.667	-7.9
693.071	10.6
693.475	17.8
693.879	20
694.282	11.3
694.686	20
695.089	46.7
695.493	41.4
695.896	16.4
696.3	27.1
696.703	16.8
697.106	10.1
697.509	2.7
697.913	24
698.316	12
698.719	36
699.122	14.2
699.525	6.6
699.928	29
700.33	29.7
700.733	41.2
701.136	10
701.539	15.3
701.941	28.6
702.344	21.1
702.746	10.9
703.149	27.6
703.551	-4
703.953	10.2
704.356	-0.4
704.758	46.5
705.16	33.8
705.562	6.3
705.964	13.8
706.366	26.6
706.768	17.1
707.17	-2.4
707.572	26.7
707.973	31.7
708.375	21.8
708.777	15
709.178	4.5
709.58	32.4
709.981	24.5
710.383	22.6
710.784	9.7
711.186	32.5
711.587	-1.9
711.988	6.6
712.389	21.1
712.79	27.5
713.191	23.9
713.592	40.7
713.993	4
714.394	9.5
714.795	25.9
715.196	-3.7
715.596	2.4
715.997	11.7
716.398	0.6
716.798	18.2
717.199	21.9
717.599	22.8
718	8.1
718.4	25.2
718.8	9.3
719.2	15
719.6	15.4
720.001	25.1
720.401	21.5
720.801	33.9
721.201	31.6
721.6	19.1
722	38.8
722.4	8
722.8	8.5
723.199	-6.6
723.599	15.7
723.998	-0.5
724.398	44.1
724.797	8.9
725.197	-4
725.596	0.6
725.995	8.4
726.394	9.7
726.794	9.3
727.193	1.4
727.592	9.5
727.991	7.8
728.39	6.3
728.789	7.4
729.187	11.6
729.586	9.1
729.985	15.4
730.383	6
730.782	-8.7
731.181	15.3
731.579	34.4
731.977	0.3
732.376	9.5
732.774	12.5
733.172	9.6
733.571	6.9
733.969	12.9
734.367	-6.1
734.765	23.8
735.163	12.7
735.561	3.5
735.959	9.4
736.356	35.6
736.754	24.6
737.152	5.9
737.55	25.7
737.947	18.1
738.345	20.7
738.742	19
739.14	45.4
739.537	29.4
739.934	32.1
740.331	31.8
740.729	20.5
741.126	32.8
741.523	38.1
741.92	30.1
742.317	29.5
742.714	27.9
743.111	28.6
743.507	23.5
743.904	30.6
744.301	21
744.697	33.9
745.094	52.9
745.491	7.5
745.887	31
746.283	38.5
746.68	12.6
747.076	34.7
747.472	32.5
747.869	22.6
748.265	32.4
748.661	34.4
749.057	32.8
749.453	60.6
749.849	23.5
750.244	49.5
750.64	54.1
751.036	26.5
751.432	32.3
751.827	42.9
752.223	51.4
752.618	56
753.014	28.7
753.409	50
753.805	45.4
754.2	48.9
754.595	50.8
754.99	42.3
755.385	41
755.78	38.5
756.175	31.9
756.57	45.6
756.965	49.2
757.36	47.4
757.755	44.8
758.15	59.6
758.544	51.3
758.939	37.6
759.334	53.2
759.728	82.5
760.122	63.9
760.517	81
760.911	65.4
761.306	70.4
761.7	66.9
762.094	92.7
762.488	82.2
762.882	70.3
763.276	58.4
763.67	77.7
764.064	82.5
764.458	85.6
764.852	86.6
765.245	90.3
765.639	100
766.033	117.4
766.426	102.7
766.82	111.7
767.213	123.4
767.606	98.8
768	105.7
768.393	82.2
768.786	97.2
769.179	107.7
769.572	79
769.966	103
770.358	80.6
770.751	68.5
771.144	63.5
771.537	70.7
771.93	73
772.323	70.6
772.715	72.8
773.108	55.1
773.5	69.5
773.893	53.2
774.285	87.2
774.678	42.4
775.07	52.3
775.462	38.5
775.854	31.4
776.247	45.7
776.639	35.4
777.031	67.4
777.423	35.5
777.815	40.7
778.207	55
778.598	43.1
778.99	69.5
779.382	63
779.773	77
780.165	92
780.557	69.7
780.948	75.3
781.339	97.4
781.731	61.2
782.122	95.9
782.513	101.2
782.905	69.6
783.296	83.7
783.687	116.9
784.078	79
784.469	88
784.86	86.8
785.251	56.3
785.641	93.9
786.032	76.5
786.423	75.4
786.813	95.1
787.204	83.9
787.594	83.5
787.985	69.8
788.375	82.1
788.766	72.8
789.156	71.1
789.546	112.2
789.936	72.2
790.326	101.1
790.717	90.2
791.107	68.3
791.497	87.9
791.886	84.3
792.276	58.9
792.666	64.3
793.056	61.5
793.445	56.9
793.835	55.9
794.225	44.5
794.614	48.6
795.004	68.4
795.393	77.9
795.782	43.9
796.172	27.9
796.561	47.4
796.95	52.8
797.339	50.5
797.728	63.6
798.117	51.8
798.506	43.6
798.895	49.9
799.284	29
799.673	76.8
800.061	40.9
800.45	49.8
800.839	29.5
801.227	45.4
801.616	10.2
802.004	36.4
802.392	40.1
802.781	26.2
803.169	35.3
803.557	23.7
803.945	40.4
804.333	21.8
804.721	27.8
805.109	21.8
805.497	35.9
805.885	26.1
806.273	23.2
806.661	24.1
807.048	8.9
807.436	20.9
807.824	28.7
808.211	21.5
808.599	24.6
808.986	16.6
809.373	49.8
809.761	42
810.148	25.9
810.535	24.3
810.922	39
811.309	41.7
811.696	24.8
812.083	28.2
812.47	27.7
812.857	9.4
813.244	20.8
813.631	30.6
814.017	47.8
814.404	18.1
814.791	29.6
815.177	41.4
815.564	35.6
815.95	7.3
816.336	28.8
816.723	25.2
817.109	33.5
817.495	33.8
817.881	16.5
818.267	15
818.653	21.9
819.039	17.6
819.425	18
819.811	17.5
820.197	27.4
820.582	6.4
820.968	47.4
821.354	14.3
821.739	24.9
822.125	6.3
822.51	5.7
822.895	23.8
823.281	15.9
823.666	35.6
824.051	28.6
824.436	-11.6
824.822	17
825.207	32
825.592	8.1
825.976	10.2
826.361	13.6
826.746	22.1
827.131	14
827.516	43.3
827.9	13.3
828.285	21.9
828.669	9.2
829.054	16.6
829.438	21.1
829.823	11.5
830.207	19.7
830.591	25.9
830.975	38.1
831.36	33.5
831.744	9.3
832.128	33.1
832.512	16.2
832.895	35
833.279	19.4
833.663	29.1
834.047	-2.2
834.431	19.7
834.814	32.5
835.198	16.8
835.581	27.9
835.965	7.9
836.348	17.6
836.731	14.4
837.115	13.6
837.498	5.9
837.881	31.6
838.264	26.6
838.647	-26.3
839.03	14.5
839.413	11.5
839.796	13.7
840.179	14.7
840.562	18.1
840.944	20.3
841.327	40.6
841.71	27
842.092	34.3
842.475	3.7
842.857	26.7
843.24	25.9
843.622	16.9
844.004	22.1
844.386	28.4
844.769	21.3
845.151	0.4
845.533	35.3
845.915	18
846.297	17.6
846.678	49.7
847.06	0
847.442	24.1
847.824	21.6
848.205	17.2
848.587	22
848.968	15.6
849.35	38.8
849.731	38.9
850.113	15.6
850.494	16.6
850.875	18
851.256	27.8
851.638	29.1
852.019	-11.8
852.4	9.3
852.781	41
853.161	19.9
853.542	31.8
853.923	25.7
854.304	22.7
854.685	11.2
855.065	4.4
855.446	22.3
855.826	-2.1
856.207	6.7
856.587	30.9
856.967	13.2
857.348	8.8
857.728	3.5
858.108	3.7
858.488	2.9
858.868	12.2
859.248	-6
859.628	11.2
860.008	25.9
860.388	-8.6
860.768	11.5
861.147	-0.6
861.527	18.1
861.907	22.2
862.286	23.5
862.666	31
863.045	0.8
863.424	37.6
863.804	9.9
864.183	7.5
864.562	19
864.941	6.8
865.32	38.1
865.699	39.3
866.078	13.7
866.457	24.8
866.836	15.8
867.215	24.9
867.594	9.1
867.972	-7.6
868.351	19.1
868.729	33.8
869.108	15.4
869.486	16.9
869.865	24.1
870.243	8.8
870.621	7.9
871	15.8
871.378	31.6
871.756	26.3
872.134	27.1
872.512	17.2
872.89	5.1
873.268	10
873.646	26.5
874.023	13
874.401	5.3
874.779	15.4
875.156	12.5
875.534	5
875.911	0.7
876.289	44.9
876.666	6.8
877.043	25.9
877.421	18.7
877.798	51.2
878.175	17.1
878.552	9.6
878.929	14
879.306	22
879.683	34.2
880.06	32.4
880.437	25.9
880.813	1.7
881.19	16.2
881.567	18.8
881.943	-1.1
882.32	9.7
882.696	20.5
883.073	28
883.449	21.9
883.825	19.6
884.202	13.8
884.578	25
884.954	17.9
885.33	5.7
885.706	14.2
886.082	18.7
886.458	16.7
886.834	24.3
887.209	0.2
887.585	3.7
887.961	10.5
888.336	23.2
888.712	29.5
889.087	26.1
889.463	-6.8
889.838	24.1
890.213	18.1
890.589	13.3
890.964	26.5
891.339	18.9
891.714	14.1
892.089	20.3
892.464	21.2
892.839	26.5
893.214	7.2
893.589	9
893.963	21.4
894.338	8.6
894.713	16.9
895.087	37.3
895.462	19.1
895.836	33.2
896.211	21
896.585	18.2
896.959	5.3
897.334	23.5
897.708	10.8
898.082	15.4
898.456	26.1
898.83	21.6
899.204	2.4
899.578	4.9
899.952	52.8
900.325	25
900.699	4.9
901.073	15.9
901.446	29.3
901.82	17.7
902.193	19.5
902.567	24.9
902.94	13.6
903.313	24.5
903.687	32.5
904.06	17.9
904.433	12.8
904.806	31.3
905.179	10.2
905.552	-8.6
905.925	21.2
906.298	21.6
906.671	25.3
907.043	15.6
907.416	25.5
907.789	31
908.161	33.2
908.534	23.3
908.906	36.5
909.279	13.8
909.651	40.5
910.023	5.1
910.396	28.9
910.768	23
911.14	28.7
911.512	15.8
911.884	14
912.256	11
912.628	27
912.999	31.8
913.371	10.8
913.743	31.3
914.115	26.6
914.486	15.8
914.858	22.9
915.229	15.5
915.601	20.9
915.972	16.6
916.343	13.4
916.715	39.3
917.086	29.5
917.457	45.9
917.828	26
918.199	21.5
918.57	19.5
918.941	0.4
919.312	45.9
919.682	26.5
920.053	22.7
920.424	6.2
920.794	34.1
921.165	12.3
921.536	28.4
921.906	33.8
922.276	1.2
922.647	43.3
923.017	26.9
923.387	21.5
923.757	25.9
924.127	25.1
924.497	35.9
924.867	27.7
925.237	26.8
925.607	4.9
925.977	34.1
926.347	33.9
926.716	38
927.086	-2.6
927.456	22.1
927.825	29.7
928.195	28.2
928.564	24.8
928.933	30.3
929.303	15.2
929.672	26.6
930.041	14
930.41	35.3
930.779	12.8
931.148	14.5
931.517	-3.9
931.886	0.6
932.255	26.8
932.624	34
932.993	28.3
933.361	37.3
933.73	38.3
934.098	30.8
934.467	15.5
934.835	6.3
935.204	27.3
935.572	26.4
935.94	21.6
936.308	20.2
936.677	21.2
937.045	27
937.413	20.5
937.781	37.5
938.149	22.2
938.516	36.2
938.884	11.2
939.252	10.1
939.62	15.2
939.987	33.9
940.355	37.4
940.722	28.4
941.09	32.5
941.457	18.3
941.825	45.4
942.192	25.7
942.559	16.8
942.926	19.9
943.293	38.7
943.66	17
944.027	5.5
944.394	20.3
944.761	36.9
945.128	21.1
945.495	25.1
945.861	31.2
946.228	24
946.595	35.5
946.961	16.1
947.328	14.4
947.694	20.5
948.06	-5.6
948.427	26.5
948.793	41.5
949.159	28.9
949.525	43.3
949.891	-4.5
950.257	35.7
950.623	20.6
950.989	16.6
951.355	35.8
951.721	19.8
952.087	11
952.452	29
952.818	30.8
953.183	10.6
953.549	18
953.914	47
954.28	35.1
954.645	32.1
955.01	37.6
955.375	14.1
955.741	14.9
956.106	32.2
956.471	64.3
956.836	20.9
957.201	29.6
957.566	34.4
957.93	29.6
958.295	28.8
958.66	0.5
959.024	6.3
959.389	11.4
959.753	5.5
960.118	26.8
960.482	27.1
960.847	17.2
961.211	40.7
961.575	8.9
961.939	20.5
962.303	23.5
962.667	29.8
963.031	8.5
963.395	6
963.759	35
964.123	12.3
964.487	1.7
964.851	11.3
965.214	34.4
965.578	29.4
965.941	-6.5
966.305	16.1
966.668	9.9
967.032	14
967.395	14
967.758	37.8
968.121	30.6
968.484	36.7
968.847	25.8
969.21	41.9
969.573	23.7
969.936	22.9
970.299	28.1
970.662	23.4
971.025	15.3
971.387	15.5
971.75	22.1
972.112	0.8
972.475	15.8
972.837	39.5
973.2	20.6
973.562	16.5
973.924	16
974.286	33.9
974.649	28.7
975.011	26.8
975.373	3
975.735	41.1
976.097	13.7
976.458	5.5
976.82	8.6
977.182	20
977.544	8.4
977.905	24.6
978.267	7.8
978.628	-5.9
978.99	23.2
979.351	17.4
979.712	25.4
980.074	6.1
980.435	31.2
980.796	-0.8
981.157	6.4
981.518	3.8
981.879	14.3
982.24	8.8
982.601	13.3
982.962	-11.3
983.323	20.2
983.683	22.3
984.044	18.1
984.404	-4.9
984.765	21
985.125	8.2
985.486	13.5
985.846	22.6
986.206	23
986.567	31.4
986.927	29.1
987.287	35.9
987.647	15.4
988.007	43.3
988.367	16.3
988.727	12.8
989.087	16.9
989.446	34.8
989.806	29.2
990.166	16.8
990.525	22
990.885	18.8
991.244	-3.9
991.604	16.6
991.963	6.8
992.322	30.4
992.682	9.7
993.041	-1.8
993.4	14.7
993.759	17.4
994.118	8.8
994.477	33.2
994.836	26.1
995.195	28.6
995.553	3.2
995.912	24
996.271	27.7
996.629	24.2
996.988	13.5
997.346	28
997.705	19.3
998.063	14.5
998.422	16.8
998.78	13.3
999.138	18
999.496	12.2
999.854	23.9
1000.212	35
1000.57	34.7
1000.928	30.2
1001.286	21.3
1001.644	21.6
1002.001	16.7
1002.359	24.6
1002.717	23.2
1003.074	36.3
1003.432	27.7
1003.789	20.2
1004.147	14.8
1004.504	3.9
1004.861	17.6
1005.218	34
1005.576	16.5
1005.933	24.9
1006.29	32.9
1006.647	-7
1007.004	1
1007.36	-5
1007.717	23.8
1008.074	-4.6
1008.431	6.1
1008.787	29.8
1009.144	6.1
1009.5	24.6
1009.857	17.9
1010.213	1.4
1010.569	30.5
1010.926	28.4
1011.282	5.7
1011.638	34.2
1011.994	-2.1
1012.35	4.8
1012.706	1.7
1013.062	14.5
1013.418	19.7
1013.774	2.9
1014.13	1.5
1014.485	11
1014.841	24.1
1015.197	8.9
1015.552	-0.3
1015.907	7.2
1016.263	-6.1
1016.618	32.1
1016.974	3.9
1017.329	10.7
1017.684	21.1
1018.039	11.4
1018.394	13.1
1018.749	22.3
1019.104	10.7
1019.459	32.3
1019.814	16.3
1020.168	13.1
1020.523	6.5
1020.878	1.2
1021.232	30.9
1021.587	25.2
1021.941	47.2
1022.296	5
1022.65	1.3
1023.004	-9.3
1023.359	16.4
1023.713	21
1024.067	-5.5
1024.421	-8.5
1024.775	17.6
1025.129	-8.7
1025.483	22.3
1025.837	-29.5
1026.19	27.9
1026.544	21
1026.898	4
1027.251	-2.7
1027.605	-4.3
1027.958	36.9
1028.312	11.9
1028.665	-1.8
1029.018	15.4
1029.372	-0.9
1029.725	10.2
1030.078	4.7
1030.431	12.7
1030.784	-15.3
1031.137	31
1031.49	20
1031.843	6.4
1032.195	11.9
1032.548	7.3
1032.901	13.3
1033.253	10.6
1033.606	2
1033.958	3.3
1034.311	11.2
1034.663	30
1035.016	-8.6
1035.368	18.3
1035.72	32.7
1036.072	5.8
1036.424	12.5
1036.776	-4.3
1037.128	9.3
1037.48	-11.7
