Data from 0.4bar_Subt2__0__17-05-45-008.txt Node

Date: Thu Jan 06 17:05:45 CET 2022
User: fsatto
Spectrometer: OFX01956
Trigger mode: 0
Integration Time (sec): 6.000000E-3
Scans to average: 10
Nonlinearity correction enabled: false
Boxcar width: 0
Storing dark spectrum: false
XAxis mode: Wavelengths
Number of Pixels in Spectrum: 2136
>>>>>Begin Spectral Data<<<<<
158.236	9.4
158.705	7
159.174	6.6
159.643	15.6
160.112	24.7
160.582	23
161.051	11
161.52	19.8
161.988	11.4
162.457	27.6
162.926	13.1
163.395	37.5
163.864	17.4
164.332	2.6
164.801	13.6
165.269	18.2
165.738	17.9
166.206	6.8
166.675	24
167.143	16.9
167.612	12.7
168.08	10
168.548	9.1
169.016	15.7
169.484	22.9
169.952	37.9
170.42	23.8
170.888	32.6
171.356	10.8
171.824	12.5
172.292	22.1
172.759	19.4
173.227	2.5
173.695	15.1
174.162	32.1
174.63	25.1
175.097	21.9
175.565	28.7
176.032	25.7
176.499	9.2
176.967	21.8
177.434	17.4
177.901	18.9
178.368	21.5
178.835	19.3
179.302	38.2
179.769	27.4
180.236	11.4
180.703	18
181.17	28.7
181.637	23.5
182.103	11.3
182.57	7
183.036	13.1
183.503	23.6
183.97	4.6
184.436	18.3
184.902	15
185.369	23.5
185.835	18.2
186.301	34.4
186.767	10.7
187.234	19.2
187.7	27.2
188.166	14.1
188.632	12.7
189.098	27.7
189.563	24.6
190.029	6.1
190.495	16.7
190.961	31.7
191.426	29.7
191.892	28
192.358	5.3
192.823	4.5
193.289	10.2
193.754	15.1
194.219	5.7
194.685	34.3
195.15	9.6
195.615	16.8
196.08	19.1
196.545	16.7
197.01	-4.4
197.475	18.4
197.94	16
198.405	14.8
198.87	-2.2
199.335	29.6
199.8	2.8
200.264	84.6
200.729	75.9
201.193	62.8
201.658	73.9
202.122	62.5
202.587	62.7
203.051	90.7
203.516	104.7
203.98	103.2
204.444	102.8
204.908	91.6
205.372	145.2
205.836	176.2
206.3	148.9
206.764	166.3
207.228	165.7
207.692	153.5
208.156	231.3
208.62	246.7
209.083	266.8
209.547	306
210.011	338.8
210.474	353.1
210.938	374.8
211.401	421.5
211.864	508.6
212.328	633.2
212.791	699.4
213.254	803
213.717	849.5
214.181	1038.6
214.644	1252.6
215.107	1405.2
215.57	1446.7
216.033	1663.1
216.495	2016.6
216.958	2442.5
217.421	2709.1
217.884	2938.2
218.346	3108.1
218.809	3391.8
219.272	3616.6
219.734	3954.9
220.196	4286.2
220.659	4449.8
221.121	4546
221.584	4653.8
222.046	5007.2
222.508	5525.3
222.97	5993.8
223.432	6348.2
223.894	6636.5
224.356	7184.4
224.818	7892.6
225.28	8589.3
225.742	9303.1
226.204	10417.5
226.665	10568
227.127	10408.7
227.589	10732.9
228.05	11624.9
228.512	12821.1
228.973	13077.5
229.435	12251.9
229.896	11394.4
230.357	11664.3
230.818	13213.3
231.28	14202.1
231.741	14602.6
232.202	13910.4
232.663	12596.2
233.124	12299.1
233.585	13692.9
234.046	15515.7
234.507	16336.3
234.967	15097.5
235.428	13523.9
235.889	12820.2
236.349	13781.3
236.81	15086
237.271	15433.2
237.731	14437.4
238.191	13579.6
238.652	13626.1
239.112	14808.7
239.572	17096
240.033	18844.4
240.493	18052.7
240.953	16339.9
241.413	15759
241.873	17297.6
242.333	19344
242.793	20180.5
243.253	19693.3
243.712	19342
244.172	19862.5
244.632	21208.4
245.092	23025.3
245.551	23452.2
246.011	22602.5
246.47	21381.8
246.93	21623.4
247.389	23160.3
247.848	24932.2
248.308	25924.4
248.767	26076.3
249.226	25180.4
249.685	24828.7
250.144	25966
250.603	29326.2
251.062	31895.3
251.521	32760
251.98	32713.8
252.439	33315.3
252.897	34725.7
253.356	37554.5
253.815	39663.9
254.273	39729.3
254.732	38745.5
255.19	35362.4
255.649	32759.7
256.107	32601.3
256.566	33766.4
257.024	35274.9
257.482	35127.8
257.94	33364.9
258.398	33476.9
258.856	33529.1
259.315	32652.8
259.772	31660.1
260.23	29996.9
260.688	27660.1
261.146	25039.5
261.604	23760.2
262.062	24590.6
262.519	26152.5
262.977	27078.1
263.434	25598.3
263.892	24652.5
264.349	24777
264.807	25730.6
265.264	26413.4
265.721	27160.8
266.179	28111.1
266.636	26689.2
267.093	25085
267.55	25308.2
268.007	26793.2
268.464	27446.3
268.921	26828.9
269.378	24409.5
269.835	22786.1
270.291	21763.4
270.748	21194
271.205	20592.6
271.661	18921.6
272.118	17343.2
272.574	16584.4
273.031	16181.6
273.487	15464.8
273.944	15087.3
274.4	15407.4
274.856	15509.5
275.312	14431.8
275.768	13896.4
276.225	13724.2
276.681	14025.5
277.137	14146.6
277.593	14110.9
278.048	13824.1
278.504	13302.4
278.96	13215.3
279.416	12849.2
279.871	12289.5
280.327	12027.3
280.783	12002.3
281.238	12020.4
281.694	11507.7
282.149	10986.7
282.604	10656.6
283.06	10432.1
283.515	10138.9
283.97	10027.1
284.425	9663.7
284.88	9132.2
285.335	8419.6
285.79	7773.8
286.245	7239.4
286.7	7463.6
287.155	7792.8
287.61	7468.2
288.064	7237.1
288.519	7343.2
288.974	7379.5
289.428	7014.9
289.883	6955.6
290.337	6974.7
290.792	7137.8
291.246	7308.1
291.7	7370.3
292.155	7425.2
292.609	7510.2
293.063	7366.1
293.517	7444.3
293.971	7731.9
294.425	7801.7
294.879	7668.3
295.333	7325.5
295.787	6806.3
296.241	6610
296.694	6659.9
297.148	6942.7
297.602	7044.3
298.055	6921.3
298.509	6466.8
298.962	5882.9
299.416	5600.2
299.869	5618.4
300.322	5650
300.775	5600.2
301.229	5362.8
301.682	5098.2
302.135	4792.7
302.588	4482.8
303.041	4308.1
303.494	4270.9
303.947	4113.4
304.4	3929.6
304.852	3703.9
305.305	3387.5
305.758	3123.7
306.21	2887.4
306.663	2753.6
307.115	2606.2
307.568	2621.4
308.02	2551.5
308.473	2375.4
308.925	2164.5
309.377	2021.7
309.829	1960.4
310.282	1869.1
310.734	1824.1
311.186	1751.5
311.638	1656.7
312.09	1533.8
312.542	1478.1
312.993	1426.3
313.445	1365.2
313.897	1356.6
314.349	1268.1
314.8	1265.8
315.252	1205
315.703	1187.2
316.155	1162.4
316.606	1101.1
317.058	1083.7
317.509	1128
317.96	1103.2
318.411	1033.2
318.863	1016.7
319.314	1012.1
319.765	963.7
320.216	975.2
320.667	902.7
321.117	872.8
321.568	878.8
322.019	873.1
322.47	877.9
322.921	814.4
323.371	757
323.822	694.6
324.272	660.1
324.723	618.4
325.173	581.5
325.623	547.7
326.074	520.5
326.524	503.1
326.974	576
327.424	751.7
327.874	878.8
328.325	676.7
328.775	480.1
329.224	428.9
329.674	420
330.124	417.4
330.574	377.9
331.024	357.5
331.473	302.9
331.923	298.6
332.373	267.2
332.822	249.9
333.272	211.9
333.721	205.9
334.17	198.2
334.62	219
335.069	182.7
335.518	158.9
335.967	164.7
336.416	150
336.865	141.9
337.314	147.6
337.763	108.5
338.212	105.6
338.661	118.1
339.11	98.6
339.558	91
340.007	95.1
340.456	96.8
340.904	105.3
341.353	86.1
341.801	68.3
342.25	76.1
342.698	78.1
343.146	90.8
343.595	50.7
344.043	78.6
344.491	61.5
344.939	54.2
345.387	52.2
345.835	40.2
346.283	49.2
346.731	47.8
347.179	22
347.626	32
348.074	49.8
348.522	42.1
348.969	24.6
349.417	-3.2
349.865	64.9
350.312	53.8
350.759	48
351.207	28.2
351.654	15.1
352.101	16.9
352.548	45.3
352.996	23.1
353.443	46.4
353.89	29.3
354.337	30.7
354.784	22.9
355.231	41.3
355.677	23.3
356.124	15.1
356.571	32
357.018	31.3
357.464	23.6
357.911	41.4
358.357	25.8
358.804	17.2
359.25	40
359.696	24.8
360.143	9.1
360.589	17
361.035	21
361.481	29.1
361.927	14.5
362.373	26.6
362.819	41.5
363.265	12.2
363.711	5.9
364.157	16.9
364.603	3.7
365.048	21.6
365.494	19.1
365.94	33.1
366.385	42.1
366.831	17.8
367.276	1.3
367.722	22.3
368.167	13.5
368.612	7.3
369.057	19.9
369.503	12
369.948	5.6
370.393	35.3
370.838	9.8
371.283	39.3
371.728	38.2
372.173	-3.9
372.617	3.5
373.062	-10.1
373.507	10.6
373.951	17.3
374.396	26.8
374.841	4.2
375.285	30.4
375.729	4
376.174	-0.7
376.618	32.8
377.062	11
377.507	25.4
377.951	8.6
378.395	50.4
378.839	6.8
379.283	25.5
379.727	22.1
380.171	11.3
380.615	22.7
381.059	12.9
381.502	22.7
381.946	17
382.39	36.3
382.833	21.9
383.277	-1.7
383.72	25.5
384.164	32.1
384.607	11.4
385.05	21.3
385.494	5.6
385.937	16.5
386.38	13.3
386.823	47.4
387.266	37.2
387.709	2.7
388.152	32.2
388.595	-0.6
389.038	-3
389.481	12.7
389.923	9.3
390.366	14.3
390.809	24.6
391.251	14.8
391.694	24.4
392.136	18.9
392.579	-0.1
393.021	3.8
393.463	12.6
393.906	-14.4
394.348	4.4
394.79	18.7
395.232	19.5
395.674	18.9
396.116	0.9
396.558	25
397	11.6
397.442	40
397.884	25.9
398.325	12.8
398.767	28.2
399.209	7.2
399.65	6.6
400.092	31.4
400.533	22.1
400.974	12.5
401.416	15.2
401.857	9.3
402.298	36.8
402.74	28.8
403.181	15.8
403.622	25.9
404.063	27.2
404.504	24.9
404.945	31
405.386	18.8
405.826	26.4
406.267	11.2
406.708	16.8
407.149	16
407.589	21.9
408.03	-9.9
408.47	0.4
408.911	16.1
409.351	2.1
409.791	13
410.232	11.8
410.672	12.3
411.112	12.3
411.552	10.3
411.992	29
412.432	32.9
412.872	23.3
413.312	26.9
413.752	8.4
414.192	8.3
414.632	35.5
415.071	1.3
415.511	26.4
415.951	12.4
416.39	22.6
416.83	26.3
417.269	24.7
417.708	-0.8
418.148	26.8
418.587	14.6
419.026	8.4
419.465	0.2
419.904	47.8
420.344	27.3
420.783	15.3
421.221	24.7
421.66	5
422.099	26.3
422.538	21.7
422.977	24.2
423.415	13.5
423.854	11
424.293	15.2
424.731	-0.7
425.17	33.9
425.608	16.7
426.046	30.5
426.485	-0.9
426.923	22.1
427.361	32.2
427.799	18.7
428.237	12.7
428.675	19.8
429.113	15.8
429.551	13.3
429.989	13
430.427	12.6
430.865	14.4
431.303	2.1
431.74	6.2
432.178	27.9
432.615	33.3
433.053	8
433.49	29.1
433.928	21.3
434.365	17.1
434.802	14
435.24	38.5
435.677	22.1
436.114	13.3
436.551	18.5
436.988	13.9
437.425	17.7
437.862	6.5
438.299	14
438.736	32.1
439.172	4.8
439.609	16.5
440.046	17.1
440.482	26
440.919	33.9
441.355	22.8
441.792	26.5
442.228	-4.2
442.665	15.9
443.101	22.8
443.537	46.2
443.973	21
444.409	34
444.845	31.2
445.281	12.1
445.717	29.1
446.153	29
446.589	27.2
447.025	15.6
447.461	18.7
447.896	15.6
448.332	27.4
448.768	22.6
449.203	32.1
449.639	6.2
450.074	2.2
450.509	29.4
450.945	30.8
451.38	20.3
451.815	22.6
452.25	17.6
452.685	12.7
453.12	28.3
453.555	26.3
453.99	6.4
454.425	47.6
454.86	27.9
455.295	23.2
455.73	21.9
456.164	-12.8
456.599	36.5
457.033	22.4
457.468	26.9
457.902	20.4
458.337	17.3
458.771	29
459.205	45.2
459.64	37.4
460.074	29
460.508	41
460.942	18.8
461.376	16.7
461.81	31.9
462.244	32
462.678	5.3
463.112	20.6
463.545	13.8
463.979	23.3
464.413	13.4
464.846	12.2
465.28	22
465.713	24.9
466.147	46.7
466.58	34.7
467.014	14.9
467.447	18.9
467.88	9.9
468.313	32
468.746	42.2
469.179	21.5
469.612	17.8
470.045	40
470.478	34.1
470.911	20.3
471.344	20.7
471.777	29
472.209	33.3
472.642	24.5
473.074	17.3
473.507	46.7
473.939	47.2
474.372	36.4
474.804	14.6
475.236	13.9
475.669	44.3
476.101	32.5
476.533	57.2
476.965	22.6
477.397	34.8
477.829	22.9
478.261	26.1
478.693	29.1
479.125	35.3
479.557	33.4
479.988	30.3
480.42	42.4
480.852	33.8
481.283	44.1
481.715	31.1
482.146	36.2
482.577	32.8
483.009	19.1
483.44	40.6
483.871	40.9
484.302	30.2
484.734	28.7
485.165	36.6
485.596	15.2
486.027	41.5
486.457	47.1
486.888	32.5
487.319	37.4
487.75	33.3
488.181	55.5
488.611	30.6
489.042	29
489.472	28.7
489.903	42.5
490.333	17.9
490.764	7.5
491.194	49.2
491.624	35.6
492.054	33
492.484	12.6
492.915	25.5
493.345	23.9
493.775	24.1
494.204	8.5
494.634	33.3
495.064	18
495.494	40.7
495.924	15.8
496.353	40.5
496.783	24.4
497.212	31.8
497.642	15.7
498.071	37.3
498.501	18.8
498.93	18.1
499.359	23.7
499.789	26.2
500.218	42.3
500.647	31.3
501.076	43
501.505	38.3
501.934	7.6
502.363	36.1
502.792	38.1
503.221	39.2
503.649	28.7
504.078	23.8
504.507	38.4
504.935	13.9
505.364	29.6
505.792	32.8
506.221	28.3
506.649	3.8
507.077	18.9
507.506	41.5
507.934	51.9
508.362	3.4
508.79	3.4
509.218	11.2
509.646	2.2
510.074	13.5
510.502	8.1
510.93	12.2
511.357	17.6
511.785	10.8
512.213	0.3
512.64	15.9
513.068	33.4
513.496	29
513.923	21.7
514.35	11.1
514.778	9.1
515.205	49.2
515.632	25.6
516.059	18.4
516.486	2.2
516.914	21.1
517.341	13
517.768	28.1
518.194	11.7
518.621	13.5
519.048	19.3
519.475	31.4
519.902	31.2
520.328	27.6
520.755	2.3
521.181	15.6
521.608	19.2
522.034	10
522.461	6.4
522.887	30.2
523.313	31.9
523.739	17.4
524.165	12.9
524.592	22.3
525.018	26.5
525.444	25.5
525.869	11.9
526.295	-14.4
526.721	-1.9
527.147	11.2
527.573	25
527.998	34.5
528.424	1.3
528.849	-9.3
529.275	13.5
529.7	17.2
530.126	26.7
530.551	21.9
530.976	17.5
531.402	33.2
531.827	8.3
532.252	18.2
532.677	6.9
533.102	21.7
533.527	25
533.952	9.1
534.377	7.1
534.801	28.1
535.226	18.4
535.651	25.5
536.076	23.2
536.5	16
536.925	23.5
537.349	-0.5
537.773	30.9
538.198	14.3
538.622	28
539.046	28.7
539.471	21.5
539.895	33.6
540.319	20.8
540.743	6.6
541.167	4.1
541.591	-7.9
542.015	10.8
542.438	17.2
542.862	40.1
543.286	11
543.71	12.2
544.133	8.7
544.557	12.1
544.98	-9.8
545.404	29.6
545.827	4.4
546.25	-4.1
546.674	5.9
547.097	25.1
547.52	-3.6
547.943	21.4
548.366	37.2
548.789	-10.2
549.212	8.6
549.635	23.7
550.058	35.5
550.481	31.9
550.903	53.1
551.326	23.5
551.749	15
552.171	6.4
552.594	28.3
553.016	14
553.438	28.5
553.861	24.8
554.283	16.9
554.705	23.8
555.128	11.4
555.55	3.1
555.972	50.8
556.394	4.8
556.816	37.1
557.238	39
557.659	15.6
558.081	-11
558.503	15.7
558.925	18.9
559.346	-5
559.768	14.5
560.189	38.2
560.611	12.3
561.032	30.6
561.454	25.5
561.875	15.4
562.296	11.5
562.718	4.2
563.139	35.6
563.56	11.1
563.981	28.9
564.402	21.2
564.823	17.3
565.244	34.8
565.664	22.8
566.085	24.5
566.506	26.7
566.927	9.9
567.347	46.4
567.768	27
568.188	22.1
568.609	21.6
569.029	16.3
569.449	10.2
569.87	47
570.29	28.6
570.71	21.8
571.13	33.2
571.55	24.8
571.97	44.5
572.39	13.9
572.81	40.9
573.23	1.1
573.65	49.7
574.069	22.7
574.489	30.5
574.909	28
575.328	47.6
575.748	25.6
576.167	17.4
576.587	13.1
577.006	41.1
577.425	0.7
577.844	28.3
578.264	-9.2
578.683	27.8
579.102	33.2
579.521	38.9
579.94	22.2
580.359	-9.1
580.778	12.2
581.196	4
581.615	34.6
582.034	36.8
582.452	-5.7
582.871	32
583.29	21.8
583.708	19.8
584.126	17.9
584.545	2.7
584.963	17.2
585.381	12.6
585.8	15.2
586.218	29.1
586.636	-5.1
587.054	34.3
587.472	22.4
587.89	-3.2
588.308	6.1
588.725	34.4
589.143	23.1
589.561	30.5
589.979	23.7
590.396	34.2
590.814	11.8
591.231	-11
591.649	22.2
592.066	16.3
592.483	9
592.901	2.4
593.318	25.2
593.735	3.8
594.152	-2.6
594.569	-1
594.986	22.3
595.403	29.2
595.82	12.9
596.237	23
596.654	27.5
597.07	28.1
597.487	13.1
597.904	20.5
598.32	19.1
598.737	-22.3
599.153	-6.9
599.57	0.9
599.986	-0.4
600.402	15
600.818	7.6
601.235	6.3
601.651	19.6
602.067	-4.1
602.483	-3.2
602.899	16.6
603.315	22.3
603.73	27.7
604.146	23.2
604.562	32.8
604.978	37.2
605.393	12.5
605.809	18.6
606.224	2.4
606.64	29.4
607.055	30.2
607.471	43.4
607.886	-3.4
608.301	-3.8
608.716	33
609.131	34.6
609.547	23.9
609.962	16.7
610.377	20.4
610.791	23.8
611.206	30.7
611.621	24.5
612.036	38
612.451	18.3
612.865	32.9
613.28	4.4
613.694	31.8
614.109	21.9
614.523	25.7
614.938	24.6
615.352	19.9
615.766	44.5
616.18	18.4
616.595	-4.4
617.009	28.4
617.423	36
617.837	18
618.251	12.1
618.664	23.8
619.078	11.8
619.492	34.6
619.906	22.7
620.319	47
620.733	31
621.146	16.6
621.56	60.5
621.973	16.5
622.387	45.4
622.8	34.7
623.213	21.3
623.627	16.6
624.04	53.7
624.453	32.8
624.866	41
625.279	58.4
625.692	57.3
626.105	57.5
626.518	33.5
626.93	55.4
627.343	49.6
627.756	46.6
628.168	32.8
628.581	84.4
628.993	74.3
629.406	56.4
629.818	50.8
630.231	49.4
630.643	58
631.055	94.9
631.467	55.3
631.879	68.4
632.291	60.1
632.703	87.6
633.115	83.6
633.527	104.8
633.939	89
634.351	84.5
634.763	98.1
635.174	109.8
635.586	114.7
635.997	112.1
636.409	127.4
636.82	147.1
637.232	130
637.643	146.5
638.054	122.9
638.466	122.5
638.877	179.7
639.288	158.1
639.699	132.2
640.11	155.4
640.521	157.7
640.932	141
641.343	144.3
641.753	149.5
642.164	154.7
642.575	170.2
642.986	192.5
643.396	175.8
643.807	153.6
644.217	172.3
644.627	167.4
645.038	163.5
645.448	160.5
645.858	180.1
646.269	177.1
646.679	196.1
647.089	170.9
647.499	163.1
647.909	182.7
648.319	151.6
648.728	155.8
649.138	142.5
649.548	171.2
649.958	156.4
650.367	148.6
650.777	134.7
651.186	149.9
651.596	183.5
652.005	151.8
652.415	136.4
652.824	139
653.233	127.8
653.642	134
654.052	129.2
654.461	129
654.87	111.7
655.279	113.3
655.688	127.3
656.096	88.4
656.505	118.5
656.914	113
657.323	114
657.731	92.8
658.14	132.1
658.548	107.2
658.957	95.5
659.365	83.2
659.774	112.1
660.182	96.4
660.59	108.9
660.998	96.3
661.407	98.2
661.815	81
662.223	99.3
662.631	73
663.039	108.1
663.446	104.3
663.854	116.5
664.262	98.4
664.67	84.1
665.077	90.7
665.485	93.5
665.892	77.3
666.3	68.6
666.707	85.7
667.115	68
667.522	81.8
667.929	100.9
668.337	66.8
668.744	53.8
669.151	59.6
669.558	81.3
669.965	95.6
670.372	56.3
670.779	44.8
671.185	57.6
671.592	37.6
671.999	54.1
672.405	49.7
672.812	62.6
673.219	44.1
673.625	18.3
674.032	21.5
674.438	38.2
674.844	25.7
675.25	45.9
675.657	14
676.063	30.8
676.469	16.5
676.875	34.1
677.281	27
677.687	10.2
678.093	17.3
678.499	25.1
678.904	27.2
679.31	9.3
679.716	23.3
680.121	-0.3
680.527	17.9
680.932	37.8
681.338	13.3
681.743	15.9
682.148	3.3
682.554	23.8
682.959	5.5
683.364	4.2
683.769	-2.5
684.174	6.1
684.579	19.9
684.984	10.8
685.389	26.2
685.794	8.6
686.199	33.5
686.603	0.9
687.008	21
687.413	16.7
687.817	12.8
688.222	-7.8
688.626	-2
689.03	13.6
689.435	15.1
689.839	-6.6
690.243	11.7
690.647	13.7
691.051	17.3
691.456	-3.9
691.859	-9.1
692.263	9.5
692.667	-2.8
693.071	7.4
693.475	14.8
693.879	18.3
694.282	8.7
694.686	13.2
695.089	43.6
695.493	39.7
695.896	15.6
696.3	30.2
696.703	10.2
697.106	16.7
697.509	-0.8
697.913	21.3
698.316	2.1
698.719	31
699.122	10.3
699.525	7.2
699.928	25.2
700.33	29.7
700.733	29.7
701.136	4.8
701.539	12.2
701.941	17.9
702.344	13.5
702.746	9
703.149	27.3
703.551	-3.2
703.953	-0.9
704.356	6.4
704.758	44.7
705.16	19.4
705.562	-7.8
705.964	8.1
706.366	27.7
706.768	5.8
707.17	-5
707.572	5.9
707.973	20.9
708.375	14.5
708.777	6.8
709.178	5.4
709.58	30.3
709.981	23.4
710.383	22.8
710.784	11.4
711.186	32.8
711.587	-4.5
711.988	15
712.389	22.5
712.79	29
713.191	23.1
713.592	40
713.993	-2
714.394	15.4
714.795	19.7
715.196	-4
715.596	0.2
715.997	13.4
716.398	-3.9
716.798	14.4
717.199	22.4
717.599	17.8
718	5.6
718.4	24.2
718.8	9.9
719.2	6.5
719.6	17.6
720.001	24.8
720.401	21.6
720.801	20
721.201	27.2
721.6	17.6
722	36.2
722.4	7.6
722.8	9.4
723.199	-10.8
723.599	7.2
723.998	2.3
724.398	38.3
724.797	8.9
725.197	-5.2
725.596	8.2
725.995	5
726.394	12.7
726.794	0.1
727.193	-0.2
727.592	9.5
727.991	4.3
728.39	3
728.789	9.6
729.187	8.6
729.586	5.7
729.985	15.3
730.383	5.7
730.782	-14.7
731.181	14.4
731.579	30.4
731.977	9.2
732.376	9.2
732.774	8.9
733.172	4.9
733.571	2.1
733.969	7
734.367	-8
734.765	20.6
735.163	12.5
735.561	1.8
735.959	13.3
736.356	41.7
736.754	29.2
737.152	7.8
737.55	20.7
737.947	22.7
738.345	20.3
738.742	21.5
739.14	43
739.537	36.6
739.934	28.6
740.331	28.6
740.729	19.8
741.126	37.2
741.523	39.7
741.92	17.1
742.317	19.3
742.714	31.8
743.111	21.8
743.507	19
743.904	31.6
744.301	17.2
744.697	27.2
745.094	57.2
745.491	9.5
745.887	38.4
746.283	37.1
746.68	13.4
747.076	37.3
747.472	37.1
747.869	30.5
748.265	29.1
748.661	33.3
749.057	37
749.453	65
749.849	29
750.244	62.8
750.64	50.7
751.036	28.6
751.432	46.4
751.827	45.2
752.223	61.7
752.618	56.1
753.014	29.5
753.409	47.3
753.805	48
754.2	50.9
754.595	46.6
754.99	46.2
755.385	41.2
755.78	36.8
756.175	45.1
756.57	45.3
756.965	60.3
757.36	47.6
757.755	50.8
758.15	60.5
758.544	64.6
758.939	50.8
759.334	46
759.728	87.8
760.122	58
760.517	84.2
760.911	62.1
761.306	66.1
761.7	54.1
762.094	77.3
762.488	61.8
762.882	49.4
763.276	41.3
763.67	60.9
764.064	61.6
764.458	65.7
764.852	69.2
765.245	70.6
765.639	81.6
766.033	92.4
766.426	93.7
766.82	93.1
767.213	108.5
767.606	74.5
768	78.9
768.393	55
768.786	73.6
769.179	85
769.572	58.9
769.966	81.1
770.358	68.8
770.751	61
771.144	59.4
771.537	72.6
771.93	72.4
772.323	78
772.715	69.6
773.108	54.2
773.5	65
773.893	61.4
774.285	87.8
774.678	48.3
775.07	50.2
775.462	36.9
775.854	33.3
776.247	56.4
776.639	46.8
777.031	56.6
777.423	39.2
777.815	46.6
778.207	65.9
778.598	53.8
778.99	75
779.382	78.5
779.773	94.7
780.165	121.2
780.557	86.6
780.948	112
781.339	119.7
781.731	84.1
782.122	131.7
782.513	131
782.905	89.6
783.296	103.4
783.687	139.7
784.078	106.6
784.469	103.1
784.86	93.7
785.251	77.8
785.641	105.4
786.032	90.9
786.423	90.5
786.813	106.3
787.204	79
787.594	90.8
787.985	73.4
788.375	79.1
788.766	61.5
789.156	69.2
789.546	114.8
789.936	67.4
790.326	87.5
790.717	77.9
791.107	63.8
791.497	80.3
791.886	64.2
792.276	51.5
792.666	48.3
793.056	52.9
793.445	42.8
793.835	44.7
794.225	32.1
794.614	37.1
795.004	61.5
795.393	66.1
795.782	33.3
796.172	21.5
796.561	48.7
796.95	35.2
797.339	50.9
797.728	52.8
798.117	47.6
798.506	37.1
798.895	50.2
799.284	26.5
799.673	74
800.061	39.5
800.45	34.8
800.839	22
801.227	40
801.616	11.2
802.004	32.5
802.392	40.8
802.781	25.8
803.169	31.7
803.557	19.8
803.945	47.8
804.333	19.7
804.721	31.4
805.109	21.5
805.497	42.3
805.885	31.6
806.273	23.2
806.661	17.6
807.048	4.3
807.436	23
807.824	30.1
808.211	20
808.599	18.6
808.986	22.2
809.373	40.6
809.761	35.6
810.148	23.8
810.535	26.4
810.922	39.5
811.309	39
811.696	14.1
812.083	31.9
812.47	17
812.857	11.4
813.244	33.9
813.631	20.4
814.017	45.8
814.404	13
814.791	24.4
815.177	35.9
815.564	37.8
815.95	10.7
816.336	25.3
816.723	13.5
817.109	27.8
817.495	32.2
817.881	21.7
818.267	20.9
818.653	23
819.039	26.8
819.425	21.2
819.811	15.7
820.197	28.2
820.582	9.9
820.968	39.7
821.354	12.5
821.739	18.6
822.125	8.1
822.51	10.3
822.895	18.9
823.281	9.9
823.666	25.1
824.051	25
824.436	-12.1
824.822	19.4
825.207	35.6
825.592	7.7
825.976	3.4
826.361	11.8
826.746	26.9
827.131	14.7
827.516	37.3
827.9	19.3
828.285	17.8
828.669	10
829.054	19.6
829.438	21.6
829.823	14.4
830.207	16.3
830.591	27.8
830.975	41.5
831.36	26.3
831.744	2.2
832.128	33
832.512	14.6
832.895	28.5
833.279	11.7
833.663	31.3
834.047	-3.2
834.431	19.1
834.814	39.6
835.198	25.1
835.581	22.7
835.965	4.9
836.348	18.1
836.731	9.7
837.115	15.8
837.498	4.9
837.881	25.7
838.264	28.9
838.647	-28.3
839.03	16.9
839.413	17.9
839.796	15.8
840.179	7.5
840.562	17.9
840.944	13.6
841.327	39.8
841.71	25.8
842.092	31.4
842.475	3.4
842.857	21.6
843.24	22.5
843.622	18.2
844.004	24.2
844.386	21.7
844.769	21.6
845.151	2.6
845.533	31
845.915	15.2
846.297	16.9
846.678	45.9
847.06	-4.2
847.442	27.5
847.824	17.2
848.205	19
848.587	14.9
848.968	10
849.35	24.2
849.731	42.1
850.113	9.2
850.494	10.3
850.875	19.9
851.256	15.1
851.638	19.8
852.019	-10.1
852.4	7.5
852.781	44.9
853.161	18.4
853.542	17.8
853.923	34
854.304	24.5
854.685	9.9
855.065	-2.7
855.446	21.5
855.826	-8.3
856.207	2.4
856.587	30.3
856.967	16.9
857.348	8.8
857.728	9.9
858.108	3.5
858.488	4.9
858.868	6.7
859.248	-16.3
859.628	11.1
860.008	24.8
860.388	-12
860.768	7.1
861.147	1.7
861.527	12.8
861.907	16.9
862.286	19.2
862.666	33.2
863.045	6.1
863.424	30
863.804	15.3
864.183	6.3
864.562	12.5
864.941	10.6
865.32	38.8
865.699	32.6
866.078	13.7
866.457	22.2
866.836	17.9
867.215	22.4
867.594	8
867.972	-6.5
868.351	21.3
868.729	29
869.108	11.7
869.486	18.3
869.865	27
870.243	14.4
870.621	10
871	12.8
871.378	29.1
871.756	20.4
872.134	30.4
872.512	17.5
872.89	6
873.268	10.5
873.646	30.5
874.023	15.1
874.401	1.4
874.779	17.1
875.156	6
875.534	-0.1
875.911	8.1
876.289	45.2
876.666	14.1
877.043	26.4
877.421	20.5
877.798	56.2
878.175	16.9
878.552	3.8
878.929	19.3
879.306	22.6
879.683	31.6
880.06	26.5
880.437	26.9
880.813	9
881.19	11.6
881.567	12
881.943	4.7
882.32	6.2
882.696	17
883.073	29.1
883.449	16.6
883.825	15.2
884.202	20.2
884.578	23.9
884.954	10.3
885.33	7.1
885.706	24
886.082	22
886.458	7.4
886.834	19.8
887.209	2.3
887.585	3
887.961	5.6
888.336	18.3
888.712	37.2
889.087	26.4
889.463	-8.8
889.838	23.7
890.213	16.4
890.589	17.2
890.964	23.4
891.339	20.9
891.714	16.2
892.089	24.5
892.464	15.7
892.839	32.9
893.214	13.9
893.589	8.9
893.963	31.1
894.338	9.4
894.713	19.2
895.087	46.7
895.462	26.2
895.836	28.9
896.211	20
896.585	13.6
896.959	12.4
897.334	18.5
897.708	11.8
898.082	13.2
898.456	23.2
898.83	8.8
899.204	-1.5
899.578	0.9
899.952	44.3
900.325	30.4
900.699	4.5
901.073	8.1
901.446	27.6
901.82	15
902.193	20.3
902.567	17.2
902.94	21.8
903.313	28
903.687	32.6
904.06	3.4
904.433	16.1
904.806	31.6
905.179	7.5
905.552	-9.5
905.925	14.1
906.298	16.3
906.671	22.8
907.043	11.5
907.416	23.8
907.789	25
908.161	25.6
908.534	19
908.906	33.9
909.279	12.2
909.651	35.8
910.023	1.1
910.396	30
910.768	29.8
911.14	14.8
911.512	14
911.884	15.8
912.256	4.6
912.628	22
912.999	28.3
913.371	6.1
913.743	22.6
914.115	18.9
914.486	20.3
914.858	22.5
915.229	5.7
915.601	25.9
915.972	17.1
916.343	13.6
916.715	39.3
917.086	18.1
917.457	49.5
917.828	29.9
918.199	25.6
918.57	13
918.941	-0.5
919.312	34.4
919.682	22.4
920.053	11.4
920.424	-1.4
920.794	37.9
921.165	8.2
921.536	32.1
921.906	30.9
922.276	11.4
922.647	50
923.017	16.3
923.387	6.7
923.757	21.7
924.127	25.6
924.497	24
924.867	36.8
925.237	29.5
925.607	8
925.977	26.9
926.347	33.3
926.716	34.7
927.086	-6.6
927.456	24.3
927.825	36.8
928.195	18.1
928.564	28.6
928.933	28.9
929.303	11.4
929.672	30.5
930.041	16.6
930.41	25.2
930.779	18.3
931.148	15.3
931.517	3.8
931.886	3.5
932.255	31.7
932.624	26.6
932.993	35.6
933.361	40.3
933.73	28.5
934.098	26.4
934.467	17.5
934.835	7.6
935.204	27.5
935.572	27.2
935.94	19.8
936.308	11.2
936.677	23
937.045	26.5
937.413	17.9
937.781	41
938.149	16.6
938.516	29.7
938.884	8.6
939.252	11.9
939.62	16.8
939.987	39.6
940.355	29.4
940.722	37.9
941.09	18.8
941.457	8.1
941.825	39
942.192	26.4
942.559	12
942.926	25.5
943.293	30.7
943.66	24.7
944.027	7.3
944.394	23.3
944.761	31.4
945.128	22.9
945.495	14.3
945.861	29.9
946.228	30.6
946.595	40.4
946.961	20.9
947.328	9.7
947.694	23.3
948.06	-8.6
948.427	21.1
948.793	37.1
949.159	28.8
949.525	44.1
949.891	-5
950.257	41.2
950.623	19.5
950.989	4.3
951.355	39.3
951.721	13.1
952.087	-1.3
952.452	17.8
952.818	25.1
953.183	18.5
953.549	17.5
953.914	45.4
954.28	31.1
954.645	39.3
955.01	33.6
955.375	6.9
955.741	19.2
956.106	34.7
956.471	54.8
956.836	25
957.201	22.8
957.566	38.4
957.93	26.1
958.295	23.5
958.66	3
959.024	26.3
959.389	10.1
959.753	2.9
960.118	21.8
960.482	15.5
960.847	15.8
961.211	35.9
961.575	3.2
961.939	17.5
962.303	30.1
962.667	32.1
963.031	15
963.395	8
963.759	37.8
964.123	10.9
964.487	6
964.851	18.2
965.214	33.3
965.578	31.5
965.941	2
966.305	12
966.668	9.6
967.032	8.4
967.395	7.9
967.758	38.9
968.121	22.8
968.484	37.2
968.847	23.4
969.21	32
969.573	19
969.936	14.6
970.299	15.4
970.662	21.9
971.025	9.9
971.387	18.9
971.75	14.6
972.112	3.7
972.475	6.9
972.837	37.9
973.2	11.9
973.562	23.2
973.924	7
974.286	27.9
974.649	18.2
975.011	24.2
975.373	-2.9
975.735	39
976.097	18
976.458	12.8
976.82	-1.6
977.182	18
977.544	10.1
977.905	29
978.267	7.8
978.628	-8.8
978.99	11
979.351	12.2
979.712	18.2
980.074	-1.1
980.435	25.3
980.796	-7.3
981.157	1.8
981.518	-2.1
981.879	15.3
982.24	8.5
982.601	12.4
982.962	-16.9
983.323	17.6
983.683	19.7
984.044	22.3
984.404	-14.7
984.765	18.1
985.125	7.4
985.486	13
985.846	20.1
986.206	21.5
986.567	35.7
986.927	34.3
987.287	34.5
987.647	23.3
988.007	37
988.367	12.6
988.727	5.6
989.087	12.3
989.446	28.8
989.806	23.7
990.166	19.4
990.525	21.8
990.885	15.6
991.244	-5.7
991.604	21.2
991.963	3.6
992.322	24.1
992.682	12.1
993.041	-11.2
993.4	13.3
993.759	18.2
994.118	8.8
994.477	34.4
994.836	26.9
995.195	24.9
995.553	-2.2
995.912	16.4
996.271	29.3
996.629	18.7
996.988	11.3
997.346	26.6
997.705	17.4
998.063	14.4
998.422	7.9
998.78	7.9
999.138	14
999.496	16.1
999.854	18.9
1000.212	28.5
1000.57	35.9
1000.928	26.3
1001.286	23.9
1001.644	15.7
1002.001	17.9
1002.359	20.9
1002.717	9.7
1003.074	26
1003.432	29.4
1003.789	18.6
1004.147	19.5
1004.504	-5
1004.861	10.6
1005.218	26.1
1005.576	7.6
1005.933	24.4
1006.29	33.4
1006.647	-5.2
1007.004	3.2
1007.36	5.7
1007.717	19.2
1008.074	-7.1
1008.431	14.2
1008.787	25.5
1009.144	3.6
1009.5	24
1009.857	17.5
1010.213	-1.1
1010.569	36.8
1010.926	23
1011.282	14.7
1011.638	31.4
1011.994	1.4
1012.35	8.5
1012.706	-2.5
1013.062	1.6
1013.418	16.7
1013.774	8.3
1014.13	1.2
1014.485	11
1014.841	22.9
1015.197	16
1015.552	-1.6
1015.907	13.3
1016.263	-8.9
1016.618	26.9
1016.974	12.8
1017.329	11.2
1017.684	15
1018.039	10.8
1018.394	15.8
1018.749	23
1019.104	12.1
1019.459	28.6
1019.814	22
1020.168	5.6
1020.523	15.3
1020.878	8.9
1021.232	23.5
1021.587	32.1
1021.941	55.1
1022.296	6.8
1022.65	-5.5
1023.004	-5.7
1023.359	7.9
1023.713	24.7
1024.067	-11.5
1024.421	-10.2
1024.775	21
1025.129	-11.6
1025.483	24.8
1025.837	-25.5
1026.19	29.3
1026.544	31.3
1026.898	3.2
1027.251	0.4
1027.605	-13.1
1027.958	34.4
1028.312	8.9
1028.665	-10.2
1029.018	14
1029.372	-4
1029.725	2.5
1030.078	3.2
1030.431	7.3
1030.784	-12.5
1031.137	21.2
1031.49	13.8
1031.843	1.6
1032.195	1.6
1032.548	-3.1
1032.901	5.7
1033.253	5.8
1033.606	3.7
1033.958	0.1
1034.311	11.1
1034.663	22.2
1035.016	-17.5
1035.368	12.4
1035.72	33.2
1036.072	11
1036.424	10.7
1036.776	-12
1037.128	19.1
1037.48	-15.7
