Data from 0.7bar_Subt2__0__17-07-14-505.txt Node

Date: Thu Jan 06 17:07:14 CET 2022
User: fsatto
Spectrometer: OFX01956
Trigger mode: 0
Integration Time (sec): 6.000000E-3
Scans to average: 10
Nonlinearity correction enabled: false
Boxcar width: 0
Storing dark spectrum: false
XAxis mode: Wavelengths
Number of Pixels in Spectrum: 2136
>>>>>Begin Spectral Data<<<<<
158.236	14.7
158.705	7.9
159.174	7.7
159.643	17.9
160.112	20.9
160.582	25.7
161.051	13
161.52	17.5
161.988	13.8
162.457	25.6
162.926	16.8
163.395	43.7
163.864	17.9
164.332	2
164.801	4.1
165.269	16.9
165.738	28.7
166.206	3.5
166.675	28.7
167.143	11.7
167.612	15.6
168.08	6.6
168.548	10.7
169.016	17
169.484	20.8
169.952	37.8
170.42	21.2
170.888	30.1
171.356	14.6
171.824	12.3
172.292	15.8
172.759	13
173.227	2.4
173.695	13.4
174.162	30.5
174.63	28.1
175.097	18.7
175.565	25.4
176.032	20.9
176.499	13.1
176.967	18.8
177.434	13
177.901	22.5
178.368	25.4
178.835	19
179.302	41.5
179.769	27.4
180.236	16.7
180.703	22.8
181.17	26.6
181.637	18.9
182.103	14
182.57	15.4
183.036	15.6
183.503	26.1
183.97	6.2
184.436	8.1
184.902	11.7
185.369	26.6
185.835	17.8
186.301	26.1
186.767	12.8
187.234	20.3
187.7	19.2
188.166	8.5
188.632	16.4
189.098	21.2
189.563	23.4
190.029	0.3
190.495	14.2
190.961	23.6
191.426	25.4
191.892	24.4
192.358	-2.1
192.823	3.4
193.289	8.9
193.754	11.5
194.219	7.1
194.685	34.7
195.15	6.9
195.615	18.3
196.08	19
196.545	19.8
197.01	2.8
197.475	19.4
197.94	16
198.405	23.4
198.87	-3.1
199.335	27.5
199.8	4
200.264	61.9
200.729	50.1
201.193	47.8
201.658	63.2
202.122	38.1
202.587	39.4
203.051	69.2
203.516	82.9
203.98	77.7
204.444	89.6
204.908	71.6
205.372	130.5
205.836	140
206.3	108.7
206.764	114
207.228	122.2
207.692	106.7
208.156	147.6
208.62	145.4
209.083	153.6
209.547	161.5
210.011	164.1
210.474	171
210.938	161.8
211.401	156.6
211.864	153.5
212.328	153.5
212.791	147.2
213.254	153.6
213.717	119.8
214.181	164.4
214.644	172
215.107	174.2
215.57	172.9
216.033	208.5
216.495	238.2
216.958	264
217.421	331.2
217.884	346.4
218.346	381.3
218.809	465.7
219.272	543.3
219.734	668.7
220.196	771.9
220.659	856.4
221.121	954.5
221.584	1054.6
222.046	1256.7
222.508	1515.2
222.97	1785
223.432	1965.4
223.894	2160.2
224.356	2469.5
224.818	2843
225.28	3305.2
225.742	3741
226.204	4333.6
226.665	4413.8
227.127	4387.3
227.589	4812.1
228.05	5468.1
228.512	6296.6
228.973	6358.4
229.435	5856.2
229.896	5416.4
230.357	5803.1
230.818	7021.3
231.28	8027.6
231.741	8200.7
232.202	7415.2
232.663	6354.3
233.124	6389.5
233.585	7590
234.046	9060.5
234.507	9397.8
234.967	7861.4
235.428	6118.4
235.889	5412.5
236.349	6344.2
236.81	7735
237.271	8100.5
237.731	7079.2
238.191	5911.9
238.652	5489.8
239.112	6427.8
239.572	8172.6
240.033	9370.3
240.493	8428.4
240.953	6736.1
241.413	6130.9
241.873	7073.8
242.333	8477.9
242.793	9120.4
243.253	8543.6
243.712	7695.1
244.172	7582
244.632	8492.4
245.092	10133.2
245.551	11233
246.011	11108.9
246.47	10592.9
246.93	10690.5
247.389	11947.8
247.848	14034.2
248.308	15636.6
248.767	16055.3
249.226	15357.4
249.685	14521.7
250.144	14709.2
250.603	17251.4
251.062	20435.9
251.521	22118.8
251.98	22477.3
252.439	22263
252.897	22306.2
253.356	23610.5
253.815	25406.3
254.273	26426.4
254.732	26696
255.19	24953.3
255.649	23097.5
256.107	22456.9
256.566	22670.2
257.024	23807
257.482	24497.4
257.94	24550.2
258.398	25496.3
258.856	25088.8
259.315	23482.5
259.772	22533.8
260.23	21761.1
260.688	20539.6
261.146	19061.3
261.604	18256.6
262.062	18670.7
262.519	20063.2
262.977	21045.4
263.434	20140.8
263.892	19750.1
264.349	20271.6
264.807	21703.7
265.264	22493.9
265.721	22713.1
266.179	23291
266.636	22447.2
267.093	21521.8
267.55	22147.1
268.007	23911.5
268.464	24721.7
268.921	24552.5
269.378	22518.8
269.835	21526.4
270.291	20957.9
270.748	20776
271.205	20744.9
271.661	19598.4
272.118	18012.1
272.574	17306.7
273.031	16947.2
273.487	16334.1
273.944	16290.1
274.4	16448.6
274.856	16523.4
275.312	15715
275.768	15218
276.225	15246
276.681	15770.2
277.137	15894.1
277.593	15642.8
278.048	15348
278.504	15276.3
278.96	15174.3
279.416	14524.6
279.871	13986.3
280.327	13786.1
280.783	14341
281.238	14813.3
281.694	14314.7
282.149	13496.6
282.604	12831.8
283.06	12329.2
283.515	12061
283.97	12142
284.425	11924.5
284.88	11258.7
285.335	10462.8
285.79	9469.8
286.245	8739.4
286.7	9058.4
287.155	9543.9
287.61	9541.5
288.064	9314.5
288.519	9526.7
288.974	9532.9
289.428	8866.7
289.883	8758.8
290.337	9068
290.792	9579.2
291.246	10053.4
291.7	10196.6
292.155	10359.5
292.609	10459.7
293.063	10347.3
293.517	10844.4
293.971	11414.7
294.425	11915.7
294.879	11984.7
295.333	11627.4
295.787	11326.4
296.241	11202.8
296.694	11370.7
297.148	11901.9
297.602	12234.6
298.055	12232.8
298.509	11679.7
298.962	10828.2
299.416	10397
299.869	10321.5
300.322	10495.6
300.775	10331.4
301.229	9996.8
301.682	9700.6
302.135	9153.6
302.588	8685
303.041	8470.8
303.494	8315.8
303.947	8148.7
304.4	7885.2
304.852	7525.6
305.305	7119.1
305.758	6655.9
306.21	6097.7
306.663	5817.5
307.115	5569.1
307.568	5514.7
308.02	5339.5
308.473	4965.4
308.925	4564.9
309.377	4274.1
309.829	4123
310.282	3963.2
310.734	3978.1
311.186	3904
311.638	3705.6
312.09	3511.9
312.542	3526.1
312.993	3475.3
313.445	3311.2
313.897	3282.2
314.349	3115.5
314.8	3101.4
315.252	3015.1
315.703	2974.6
316.155	2869
316.606	2702.1
317.058	2536.1
317.509	2609.4
317.96	2550.4
318.411	2485.7
318.863	2521.8
319.314	2517.2
319.765	2452.3
320.216	2388.6
320.667	2276.2
321.117	2227.3
321.568	2251.5
322.019	2275.8
322.47	2238
322.921	2139.9
323.371	1981.8
323.822	1808.2
324.272	1693.8
324.723	1600.2
325.173	1500.9
325.623	1420.6
326.074	1346
326.524	1292
326.974	1444.6
327.424	1945.6
327.874	2231.7
328.325	1731
328.775	1230.9
329.224	1097.7
329.674	1036.8
330.124	1006.9
330.574	948.8
331.024	893.1
331.473	794.3
331.923	754.3
332.373	679.3
332.822	642.9
333.272	574.9
333.721	544.5
334.17	516.9
334.62	510.8
335.069	462.3
335.518	429.6
335.967	417.9
336.416	393.9
336.865	375.6
337.314	357.9
337.763	306
338.212	285.7
338.661	291.4
339.11	246.8
339.558	234.9
340.007	234.3
340.456	242.7
340.904	243
341.353	207.8
341.801	193.3
342.25	197.2
342.698	188.2
343.146	181.1
343.595	141.8
344.043	168.9
344.491	146.9
344.939	137.4
345.387	133.2
345.835	107.4
346.283	118.3
346.731	108.3
347.179	83.9
347.626	86.2
348.074	95.4
348.522	79.4
348.969	79.3
349.417	34.7
349.865	96.9
350.312	85
350.759	81.2
351.207	59
351.654	35.2
352.101	31.3
352.548	62.5
352.996	42
353.443	68.4
353.89	50.5
354.337	46.9
354.784	34
355.231	62.5
355.677	40.6
356.124	22.6
356.571	40.8
357.018	36.9
357.464	48.8
357.911	55.3
358.357	25.7
358.804	26.8
359.25	42.4
359.696	32.4
360.143	23.3
360.589	29.4
361.035	21.8
361.481	38.4
361.927	21.8
362.373	32.6
362.819	40.1
363.265	16.5
363.711	15.2
364.157	19.2
364.603	0.4
365.048	28.7
365.494	26.4
365.94	35.7
366.385	48.9
366.831	25.1
367.276	7.3
367.722	28.4
368.167	19
368.612	15
369.057	22.7
369.503	20.8
369.948	8.3
370.393	37.7
370.838	11.1
371.283	41.3
371.728	35.1
372.173	1.5
372.617	2.7
373.062	-14
373.507	10.7
373.951	21.8
374.396	27
374.841	16.3
375.285	19.3
375.729	6.6
376.174	5.2
376.618	36.1
377.062	5.2
377.507	19.7
377.951	5.3
378.395	44.9
378.839	17.9
379.283	19.8
379.727	19.7
380.171	17.7
380.615	24
381.059	14.7
381.502	15.5
381.946	13.1
382.39	34.3
382.833	15.1
383.277	-0.3
383.72	25.5
384.164	24.5
384.607	7.5
385.05	25.9
385.494	12.9
385.937	17.5
386.38	12.2
386.823	52.4
387.266	34.9
387.709	8.1
388.152	27.5
388.595	1.6
389.038	4.7
389.481	21
389.923	15.6
390.366	15.3
390.809	20.6
391.251	14.2
391.694	29.7
392.136	17.5
392.579	-0.8
393.021	4.1
393.463	11.8
393.906	-5.8
394.348	15.3
394.79	19.3
395.232	14.4
395.674	13.9
396.116	6.1
396.558	25.8
397	19
397.442	34.8
397.884	31.4
398.325	13.8
398.767	35.6
399.209	7.2
399.65	8.4
400.092	31.4
400.533	13.1
400.974	18.5
401.416	15.8
401.857	4.1
402.298	38
402.74	26.6
403.181	17.4
403.622	23.3
404.063	29.2
404.504	22
404.945	21.2
405.386	13.9
405.826	25.4
406.267	14.2
406.708	18.8
407.149	24.1
407.589	19
408.03	-5.1
408.47	6.5
408.911	16.2
409.351	-2.6
409.791	16.3
410.232	8.9
410.672	14.8
411.112	4.2
411.552	11.6
411.992	20.8
412.432	30.9
412.872	21.7
413.312	29.6
413.752	9.4
414.192	14.3
414.632	26.9
415.071	4.3
415.511	22.5
415.951	10.9
416.39	17
416.83	28.1
417.269	15.4
417.708	-4.4
418.148	19.2
418.587	17.9
419.026	7.8
419.465	4.5
419.904	53.2
420.344	33
420.783	17.5
421.221	24.2
421.66	3.4
422.099	28.2
422.538	17.9
422.977	22.4
423.415	10.1
423.854	18.8
424.293	12.4
424.731	0.4
425.17	31.5
425.608	14.4
426.046	21.8
426.485	2.1
426.923	20.6
427.361	30.9
427.799	20.4
428.237	13.9
428.675	24
429.113	14.8
429.551	14.7
429.989	10
430.427	11.7
430.865	16.1
431.303	11.4
431.74	13.9
432.178	26.2
432.615	22.8
433.053	8.2
433.49	26
433.928	22.3
434.365	14.8
434.802	18.1
435.24	40.1
435.677	20.1
436.114	14.6
436.551	25.4
436.988	9.8
437.425	7.7
437.862	13.8
438.299	8.7
438.736	27.8
439.172	6
439.609	11.5
440.046	9.6
440.482	29.4
440.919	35.1
441.355	14.5
441.792	28.6
442.228	6.3
442.665	10.5
443.101	14.8
443.537	48.3
443.973	32.9
444.409	34.1
444.845	25.4
445.281	10.1
445.717	25.7
446.153	25
446.589	16.8
447.025	11.9
447.461	26.8
447.896	12.7
448.332	22.8
448.768	19.7
449.203	32.6
449.639	5.6
450.074	3.3
450.509	31.9
450.945	34
451.38	23.9
451.815	24.7
452.25	18
452.685	11.6
453.12	41.8
453.555	33.4
453.99	10.4
454.425	43.8
454.86	22
455.295	24.4
455.73	17.6
456.164	-2.3
456.599	31.8
457.033	19.7
457.468	21.9
457.902	27.3
458.337	25.8
458.771	30.4
459.205	43.5
459.64	30.3
460.074	26.8
460.508	37.2
460.942	20.9
461.376	16.5
461.81	28.7
462.244	37
462.678	5.9
463.112	23.2
463.545	10.9
463.979	20.7
464.413	18
464.846	23.7
465.28	17.7
465.713	19.4
466.147	37.3
466.58	35
467.014	3.8
467.447	19.4
467.88	1.5
468.313	37.7
468.746	38.2
469.179	21
469.612	11.8
470.045	31.5
470.478	28.2
470.911	21.7
471.344	7.9
471.777	29.7
472.209	30.8
472.642	31.1
473.074	19.8
473.507	47
473.939	41.1
474.372	37.7
474.804	20.4
475.236	19.5
475.669	38.8
476.101	33.1
476.533	52.9
476.965	16.9
477.397	22.6
477.829	20.4
478.261	23.1
478.693	31.3
479.125	29.1
479.557	32.6
479.988	31.3
480.42	34.9
480.852	28.6
481.283	35
481.715	26.5
482.146	28.8
482.577	29.7
483.009	8.9
483.44	30.8
483.871	41
484.302	25.5
484.734	27.5
485.165	33.1
485.596	19.7
486.027	44.4
486.457	44.9
486.888	29
487.319	38.7
487.75	43
488.181	53.2
488.611	32.7
489.042	27.8
489.472	27.9
489.903	50.7
490.333	19.6
490.764	11.8
491.194	51
491.624	34.9
492.054	32.7
492.484	21.1
492.915	26.7
493.345	21.4
493.775	21.3
494.204	8.2
494.634	26.9
495.064	15.8
495.494	39.5
495.924	15.4
496.353	35.6
496.783	30.5
497.212	33.1
497.642	12
498.071	36
498.501	23.3
498.93	25.8
499.359	31.4
499.789	18.4
500.218	48.5
500.647	38.4
501.076	42.4
501.505	29.9
501.934	15.4
502.363	37.4
502.792	39.5
503.221	45.1
503.649	22
504.078	34
504.507	47.3
504.935	10.5
505.364	24.7
505.792	36.2
506.221	25.4
506.649	11.5
507.077	19.3
507.506	41.2
507.934	44.2
508.362	2.5
508.79	5.6
509.218	13.8
509.646	4.4
510.074	14.1
510.502	11.6
510.93	20.5
511.357	19.6
511.785	20.1
512.213	9.6
512.64	23.1
513.068	30
513.496	30.7
513.923	22
514.35	8.8
514.778	12.3
515.205	45.8
515.632	17.3
516.059	12.8
516.486	6.2
516.914	18.7
517.341	18
517.768	26.6
518.194	12.2
518.621	11.4
519.048	14.2
519.475	31
519.902	29.6
520.328	29.8
520.755	12.9
521.181	18.4
521.608	21.5
522.034	19
522.461	-2.2
522.887	41.1
523.313	22.4
523.739	17.3
524.165	10.4
524.592	30.3
525.018	27
525.444	23.5
525.869	17
526.295	-14.8
526.721	1.9
527.147	14.7
527.573	24.6
527.998	35.9
528.424	8
528.849	2
529.275	7.9
529.7	16.2
530.126	20.3
530.551	17.2
530.976	14.2
531.402	28.9
531.827	8.1
532.252	17.7
532.677	8.7
533.102	21.4
533.527	29.3
533.952	10.5
534.377	19.4
534.801	23.1
535.226	18.5
535.651	24.9
536.076	30
536.5	10.4
536.925	22.7
537.349	6.3
537.773	23.1
538.198	17.4
538.622	32.8
539.046	27.4
539.471	24.7
539.895	22.8
540.319	15.3
540.743	12.2
541.167	6.7
541.591	-3.2
542.015	11.6
542.438	13.8
542.862	36.4
543.286	11.9
543.71	11.4
544.133	20
544.557	17.3
544.98	-2
545.404	38
545.827	13.6
546.25	-8.1
546.674	6.3
547.097	26.9
547.52	2.6
547.943	26.1
548.366	42.4
548.789	-7.4
549.212	13.5
549.635	24.3
550.058	39.3
550.481	32.8
550.903	42
551.326	29.1
551.749	12.8
552.171	2.4
552.594	32.8
553.016	15
553.438	16.4
553.861	21.6
554.283	20.6
554.705	12.1
555.128	7.1
555.55	-0.9
555.972	56.7
556.394	4.3
556.816	31.9
557.238	47.1
557.659	13.5
558.081	-7.8
558.503	22.1
558.925	20
559.346	-7.2
559.768	22.1
560.189	41.8
560.611	15.4
561.032	29.7
561.454	25.9
561.875	17.9
562.296	17.3
562.718	3.3
563.139	43.5
563.56	8.9
563.981	31
564.402	18.2
564.823	22.4
565.244	26
565.664	29.7
566.085	17.2
566.506	29.7
566.927	21
567.347	45.7
567.768	27.8
568.188	35.8
568.609	24.1
569.029	8.5
569.449	-0.6
569.87	45.6
570.29	22.4
570.71	11.1
571.13	28.9
571.55	21.5
571.97	36.9
572.39	20.2
572.81	34.3
573.23	1.6
573.65	43.1
574.069	29.5
574.489	37
574.909	21.6
575.328	48.3
575.748	28.3
576.167	9.4
576.587	8.9
577.006	43
577.425	7.9
577.844	31.3
578.264	-6.6
578.683	30.3
579.102	34.8
579.521	38.4
579.94	27.7
580.359	-15.3
580.778	8.8
581.196	8.8
581.615	42
582.034	37.8
582.452	11
582.871	34.3
583.29	24.7
583.708	25.8
584.126	27.9
584.545	12.4
584.963	26.8
585.381	10.6
585.8	15
586.218	39.2
586.636	-4.4
587.054	22.9
587.472	14.9
587.89	1.1
588.308	3.2
588.725	42.2
589.143	27
589.561	36.2
589.979	18.6
590.396	28.6
590.814	19.3
591.231	-17.8
591.649	20.5
592.066	19.2
592.483	12
592.901	10.2
593.318	18.9
593.735	8.6
594.152	0.3
594.569	-4.5
594.986	24
595.403	23.8
595.82	18.7
596.237	25.9
596.654	19.1
597.07	24.2
597.487	15
597.904	22.8
598.32	21.6
598.737	-22.7
599.153	-6.1
599.57	-7.6
599.986	7.2
600.402	20.1
600.818	-0.9
601.235	6.9
601.651	18.7
602.067	2.3
602.483	3.9
602.899	21.7
603.315	23.5
603.73	42.1
604.146	13.7
604.562	31
604.978	41.4
605.393	28.2
605.809	19.5
606.224	-5.4
606.64	20.2
607.055	31
607.471	50.4
607.886	-10.2
608.301	-11.8
608.716	35.1
609.131	32.4
609.547	24.2
609.962	16.2
610.377	20.7
610.791	16.9
611.206	35.8
611.621	14.7
612.036	27.2
612.451	10.1
612.865	25.3
613.28	3.2
613.694	36.4
614.109	27.1
614.523	28.3
614.938	30.2
615.352	20.4
615.766	53
616.18	23.9
616.595	-1.6
617.009	25.3
617.423	39.4
617.837	20.1
618.251	0
618.664	20.8
619.078	10.7
619.492	45.7
619.906	30
620.319	42.2
620.733	35.5
621.146	18.3
621.56	59.7
621.973	16
622.387	50
622.8	45.2
623.213	21.6
623.627	20.8
624.04	42.2
624.453	40.5
624.866	39.2
625.279	62.7
625.692	67.5
626.105	58.3
626.518	33.6
626.93	54.8
627.343	46.5
627.756	56.1
628.168	38.7
628.581	72
628.993	76.8
629.406	61.2
629.818	50.4
630.231	52.5
630.643	59.5
631.055	95.1
631.467	56
631.879	74.3
632.291	64.3
632.703	88.6
633.115	91.3
633.527	110.8
633.939	96.8
634.351	94.8
634.763	115.7
635.174	134.8
635.586	130
635.997	124.8
636.409	144.8
636.82	155.2
637.232	132.4
637.643	155.6
638.054	129.3
638.466	148.5
638.877	190.6
639.288	167
639.699	149.4
640.11	168.6
640.521	171.1
640.932	157.2
641.343	154.5
641.753	161
642.164	168.1
642.575	186
642.986	201.8
643.396	171.4
643.807	169.7
644.217	185.5
644.627	181.9
645.038	188.4
645.448	185.1
645.858	189
646.269	182.7
646.679	208.9
647.089	183.8
647.499	167.1
647.909	183.9
648.319	151.6
648.728	165.8
649.138	140
649.548	160.7
649.958	168.9
650.367	149.1
650.777	131.8
651.186	138.5
651.596	180.6
652.005	145.1
652.415	128.1
652.824	136.4
653.233	128.1
653.642	120.3
654.052	141.8
654.461	121.3
654.87	118.8
655.279	94.3
655.688	114
656.096	84
656.505	109.9
656.914	114.8
657.323	109
657.731	102.9
658.14	147.2
658.548	104.7
658.957	93.9
659.365	85
659.774	123.5
660.182	93.4
660.59	112.2
660.998	115.5
661.407	111.8
661.815	93.4
662.223	114.7
662.631	85.1
663.039	111.6
663.446	119.6
663.854	113
664.262	113.6
664.67	94.3
665.077	103.3
665.485	90.6
665.892	78.3
666.3	76.4
666.707	83.2
667.115	70.3
667.522	78
667.929	97.6
668.337	62.6
668.744	59.9
669.151	62.2
669.558	71.5
669.965	98.9
670.372	63
670.779	57.9
671.185	52
671.592	35.1
671.999	43.8
672.405	49
672.812	53.4
673.219	45.5
673.625	21.6
674.032	26.4
674.438	40.8
674.844	27.5
675.25	40.7
675.657	13.3
676.063	29.3
676.469	15
676.875	41.4
677.281	23.1
677.687	7.2
678.093	12.6
678.499	14.5
678.904	23.9
679.31	17.1
679.716	26.8
680.121	7.7
680.527	16.5
680.932	40.4
681.338	9.4
681.743	16.9
682.148	-4.6
682.554	22.3
682.959	6.8
683.364	13.2
683.769	2.2
684.174	8.7
684.579	25.8
684.984	5.8
685.389	16.7
685.794	11.6
686.199	20.9
686.603	9.1
687.008	24.6
687.413	11.4
687.817	5.5
688.222	-9.8
688.626	8
689.03	6.4
689.435	16.3
689.839	-16.5
690.243	22.6
690.647	11.3
691.051	17.8
691.456	-2.3
691.859	-4.9
692.263	9.5
692.667	-6.2
693.071	4.4
693.475	18.6
693.879	20.9
694.282	6.4
694.686	14.8
695.089	49
695.493	30.9
695.896	9.1
696.3	17.4
696.703	12.4
697.106	8
697.509	-1.7
697.913	25.2
698.316	7.3
698.719	39.8
699.122	16
699.525	8.8
699.928	22.1
700.33	32.5
700.733	37.4
701.136	9
701.539	7.5
701.941	18.7
702.344	14.2
702.746	13.9
703.149	24.3
703.551	-5
703.953	4.3
704.356	-3.3
704.758	33.8
705.16	28.5
705.562	1.7
705.964	12.6
706.366	22.5
706.768	2.3
707.17	-6
707.572	13.1
707.973	30.8
708.375	17.9
708.777	11.6
709.178	10.3
709.58	27.7
709.981	27.6
710.383	16.5
710.784	17.4
711.186	23.7
711.587	-6.6
711.988	15.4
712.389	21.2
712.79	25.3
713.191	15.8
713.592	40.2
713.993	-5
714.394	12.5
714.795	26.1
715.196	-10.9
715.596	1.6
715.997	13.5
716.398	-5.2
716.798	13.2
717.199	24.1
717.599	12.2
718	8.6
718.4	23.8
718.8	6.9
719.2	17.5
719.6	10.5
720.001	23.8
720.401	23.2
720.801	18.9
721.201	29.1
721.6	14.3
722	33.2
722.4	9.5
722.8	11.7
723.199	-2.2
723.599	11.5
723.998	-0.4
724.398	37.3
724.797	10.5
725.197	-6
725.596	-0.7
725.995	7.5
726.394	10
726.794	4.6
727.193	-2.2
727.592	5.7
727.991	9.4
728.39	6.3
728.789	7.6
729.187	9.9
729.586	-2.3
729.985	9.9
730.383	7.8
730.782	-9.1
731.181	13.4
731.579	28.8
731.977	8.5
732.376	9.7
732.774	13.3
733.172	1
733.571	3.7
733.969	8.2
734.367	-2.9
734.765	19.8
735.163	5.8
735.561	4.9
735.959	10.8
736.356	36.9
736.754	22.4
737.152	0.2
737.55	29
737.947	24.2
738.345	25.9
738.742	23.4
739.14	49.5
739.537	25.5
739.934	40.6
740.331	26.2
740.729	25.1
741.126	28.2
741.523	35.2
741.92	20.8
742.317	20.5
742.714	25.2
743.111	27.8
743.507	19.7
743.904	32.8
744.301	23.3
744.697	33.5
745.094	49.2
745.491	5.6
745.887	31
746.283	37.7
746.68	15
747.076	36.7
747.472	32.6
747.869	24.3
748.265	18
748.661	27.8
749.057	35.6
749.453	51.2
749.849	24.6
750.244	55.9
750.64	47.3
751.036	24
751.432	27.3
751.827	44.7
752.223	52.5
752.618	50.1
753.014	19.1
753.409	47.1
753.805	32.3
754.2	51.1
754.595	38.9
754.99	35.6
755.385	38.6
755.78	38.5
756.175	29.4
756.57	40.2
756.965	51.3
757.36	49.5
757.755	39.4
758.15	60.5
758.544	56.5
758.939	52.6
759.334	63.5
759.728	91
760.122	78.7
760.517	93.8
760.911	76.2
761.306	80
761.7	74.6
762.094	96.8
762.488	87.6
762.882	73.5
763.276	64
763.67	94.2
764.064	77.3
764.458	88.5
764.852	90.1
765.245	94.4
765.639	109.9
766.033	119.9
766.426	111.7
766.82	122.2
767.213	126
767.606	106.6
768	110.8
768.393	81.8
768.786	98
769.179	111.5
769.572	73.8
769.966	89.7
770.358	78.4
770.751	70.5
771.144	58.9
771.537	78
771.93	74.9
772.323	72.9
772.715	76.4
773.108	65.3
773.5	65.5
773.893	57.9
774.285	88.4
774.678	39.7
775.07	59
775.462	44.2
775.854	36.6
776.247	40.9
776.639	38.5
777.031	60.2
777.423	36.6
777.815	38.7
778.207	52.8
778.598	36.9
778.99	70.7
779.382	58.6
779.773	77
780.165	111.1
780.557	79.6
780.948	73.6
781.339	99
781.731	75.1
782.122	102
782.513	109.1
782.905	79.3
783.296	94.4
783.687	124.1
784.078	95
784.469	83.5
784.86	82
785.251	62.6
785.641	95.7
786.032	78
786.423	77.9
786.813	91.2
787.204	74.2
787.594	92.3
787.985	80.3
788.375	81.8
788.766	68
789.156	65.4
789.546	105
789.936	68.1
790.326	94.4
790.717	80.9
791.107	64.5
791.497	89.1
791.886	72.3
792.276	49.6
792.666	58.7
793.056	56.4
793.445	42
793.835	52.8
794.225	44.3
794.614	51.5
795.004	67.8
795.393	70.7
795.782	39.6
796.172	25.3
796.561	44.6
796.95	33.9
797.339	53.1
797.728	58.4
798.117	59.8
798.506	41
798.895	49.7
799.284	23.9
799.673	80
800.061	41.5
800.45	45.9
800.839	27.5
801.227	44.6
801.616	15.8
802.004	28.9
802.392	37.1
802.781	23.8
803.169	25.8
803.557	27.9
803.945	45.9
804.333	22.1
804.721	23.8
805.109	20.6
805.497	42
805.885	30.4
806.273	18.3
806.661	19
807.048	8.6
807.436	26.6
807.824	25.9
808.211	20.7
808.599	8.5
808.986	16.3
809.373	43.4
809.761	35.5
810.148	28.3
810.535	29.8
810.922	29.4
811.309	44.1
811.696	18.3
812.083	25.8
812.47	24.1
812.857	16.5
813.244	33.5
813.631	17.8
814.017	44.9
814.404	13.1
814.791	29.1
815.177	42.8
815.564	33.2
815.95	8.5
816.336	28.2
816.723	20.5
817.109	14.7
817.495	34.7
817.881	12
818.267	15.1
818.653	21.8
819.039	18.3
819.425	16.6
819.811	13.1
820.197	26.1
820.582	7.9
820.968	37.5
821.354	11.5
821.739	23.1
822.125	15.2
822.51	14.4
822.895	19.5
823.281	13.4
823.666	38.2
824.051	29.2
824.436	-9
824.822	21.5
825.207	33.4
825.592	-0.1
825.976	13
826.361	9.8
826.746	29
827.131	14.1
827.516	34.8
827.9	13.2
828.285	23.7
828.669	12.3
829.054	19.9
829.438	20.4
829.823	8.8
830.207	24.9
830.591	32.7
830.975	37.6
831.36	37.1
831.744	12.7
832.128	39.7
832.512	14.7
832.895	26.1
833.279	18
833.663	33.7
834.047	2
834.431	24.7
834.814	30
835.198	22.9
835.581	21.4
835.965	-0.4
836.348	19.8
836.731	20.4
837.115	11.7
837.498	0.6
837.881	24.9
838.264	25.3
838.647	-33.9
839.03	15.5
839.413	15
839.796	10.3
840.179	11.6
840.562	13.4
840.944	20.5
841.327	37.6
841.71	23.2
842.092	31.4
842.475	7.3
842.857	28.3
843.24	28.1
843.622	21
844.004	20.5
844.386	18.9
844.769	18.1
845.151	-5
845.533	29.7
845.915	14.6
846.297	18.5
846.678	42.6
847.06	5.1
847.442	20.1
847.824	15.8
848.205	17.6
848.587	12.7
848.968	11.2
849.35	37.4
849.731	31.4
850.113	4
850.494	11.6
850.875	17.5
851.256	19.9
851.638	18.9
852.019	-13.9
852.4	8.4
852.781	39.4
853.161	10.5
853.542	17.9
853.923	24.9
854.304	16.9
854.685	4.7
855.065	-1.3
855.446	15.7
855.826	-8.7
856.207	5.2
856.587	28.3
856.967	7
857.348	13.5
857.728	-5.2
858.108	3.8
858.488	5.3
858.868	10
859.248	-8.7
859.628	8.6
860.008	29.9
860.388	-7.7
860.768	15.2
861.147	2.3
861.527	11.5
861.907	16.7
862.286	19.4
862.666	32.2
863.045	12.2
863.424	36
863.804	7.7
864.183	1.7
864.562	16
864.941	9.2
865.32	34.9
865.699	35.6
866.078	4.3
866.457	22.4
866.836	17
867.215	17.2
867.594	13.6
867.972	-6.1
868.351	24
868.729	35.9
869.108	11.5
869.486	15.6
869.865	18.9
870.243	10
870.621	3.5
871	11.7
871.378	24.8
871.756	24.2
872.134	36
872.512	19.4
872.89	7.3
873.268	9.2
873.646	30
874.023	13.7
874.401	6.7
874.779	21.7
875.156	7.8
875.534	0.3
875.911	7.6
876.289	38.3
876.666	15.2
877.043	24.1
877.421	21.3
877.798	48.1
878.175	18.2
878.552	9.1
878.929	17.5
879.306	22.5
879.683	36.4
880.06	26.8
880.437	19.9
880.813	9.9
881.19	12.8
881.567	15.9
881.943	-1
882.32	8.3
882.696	13.7
883.073	38.2
883.449	14.1
883.825	15.8
884.202	6.3
884.578	29
884.954	9.9
885.33	8.2
885.706	20.2
886.082	23.4
886.458	11.2
886.834	24.7
887.209	3
887.585	0
887.961	7.9
888.336	16.2
888.712	31.2
889.087	21
889.463	-4.2
889.838	22.1
890.213	20.9
890.589	13.2
890.964	21.7
891.339	17.6
891.714	21.8
892.089	23
892.464	21.8
892.839	30.2
893.214	17.1
893.589	7.7
893.963	20.5
894.338	9.3
894.713	21.2
895.087	36.9
895.462	19.8
895.836	17.9
896.211	23.8
896.585	7.6
896.959	1.9
897.334	24
897.708	2
898.082	14.4
898.456	17.4
898.83	6.8
899.204	-2.1
899.578	-2.2
899.952	40
900.325	23.1
900.699	-6.8
901.073	12.6
901.446	31.3
901.82	21.6
902.193	22
902.567	22.6
902.94	8.5
903.313	24.4
903.687	27.5
904.06	15.4
904.433	5.7
904.806	38.1
905.179	7.6
905.552	-11.6
905.925	25.6
906.298	16.3
906.671	16.6
907.043	11.9
907.416	29.9
907.789	26.7
908.161	29.1
908.534	19.1
908.906	24.5
909.279	12.3
909.651	37.7
910.023	4.7
910.396	34.9
910.768	20.1
911.14	16
911.512	14.8
911.884	9.8
912.256	13.1
912.628	24.8
912.999	32.8
913.371	13
913.743	26
914.115	25.6
914.486	21.2
914.858	23.9
915.229	7.9
915.601	26.3
915.972	16.5
916.343	19.7
916.715	33.8
917.086	26.5
917.457	40.5
917.828	21.9
918.199	23.4
918.57	17.8
918.941	7.2
919.312	34.5
919.682	29
920.053	14.6
920.424	0.7
920.794	39.1
921.165	11.9
921.536	33.5
921.906	32.2
922.276	10.6
922.647	39.7
923.017	28.3
923.387	13.8
923.757	28.2
924.127	23
924.497	29.3
924.867	30.8
925.237	28.4
925.607	15.6
925.977	37.6
926.347	42.2
926.716	33.3
927.086	-6.3
927.456	25.5
927.825	39
928.195	17.7
928.564	29.3
928.933	31.5
929.303	14.9
929.672	36.2
930.041	24.1
930.41	40.1
930.779	16.9
931.148	18.5
931.517	15.7
931.886	7.8
932.255	28.9
932.624	30.4
932.993	28.7
933.361	35.8
933.73	43.4
934.098	20.2
934.467	9.1
934.835	4.4
935.204	29.1
935.572	36
935.94	21.2
936.308	12.8
936.677	20.5
937.045	24.8
937.413	24.1
937.781	32.9
938.149	20.2
938.516	32.5
938.884	4.1
939.252	8.9
939.62	16.6
939.987	38.2
940.355	30.7
940.722	28.2
941.09	26.5
941.457	5.6
941.825	45
942.192	24
942.559	12.1
942.926	17.5
943.293	34.9
943.66	19.1
944.027	4.3
944.394	23.4
944.761	17.9
945.128	24.7
945.495	22.4
945.861	30.8
946.228	29.6
946.595	41.2
946.961	15.7
947.328	10.6
947.694	25.6
948.06	-9.1
948.427	31
948.793	34.6
949.159	28.8
949.525	32.2
949.891	-7.3
950.257	40.9
950.623	14.1
950.989	7.2
951.355	47.4
951.721	17.2
952.087	5.9
952.452	16.2
952.818	24.1
953.183	11.7
953.549	14.8
953.914	43.6
954.28	29.1
954.645	35.1
955.01	26
955.375	11.1
955.741	12.3
956.106	30.2
956.471	60.7
956.836	21.7
957.201	24.1
957.566	31.9
957.93	21.1
958.295	26.6
958.66	-2.5
959.024	8.8
959.389	13.2
959.753	3.4
960.118	17.4
960.482	30
960.847	17.8
961.211	33.9
961.575	6.9
961.939	19.9
962.303	27.8
962.667	35.9
963.031	5.6
963.395	7.9
963.759	37.9
964.123	8.8
964.487	6
964.851	16
965.214	31
965.578	24.7
965.941	-2.7
966.305	8.3
966.668	14.2
967.032	8
967.395	10
967.758	24.9
968.121	23.9
968.484	37.9
968.847	20.6
969.21	36.2
969.573	18.5
969.936	15.4
970.299	24.8
970.662	30.1
971.025	19.2
971.387	15
971.75	19.1
972.112	1.7
972.475	12.3
972.837	34.1
973.2	20.1
973.562	20.7
973.924	16.2
974.286	24.3
974.649	22
975.011	21.4
975.373	-0.8
975.735	33.4
976.097	19.2
976.458	3.9
976.82	5.8
977.182	20
977.544	10
977.905	28.1
978.267	8.2
978.628	-9.2
978.99	11
979.351	6.6
979.712	20.2
980.074	-6.1
980.435	18
980.796	-3.9
981.157	-0.9
981.518	-1.9
981.879	10.8
982.24	-5.7
982.601	6.2
982.962	-17.3
983.323	14.8
983.683	20.9
984.044	15.7
984.404	-11.1
984.765	19
985.125	11.1
985.486	12.4
985.846	21.6
986.206	19.1
986.567	29.9
986.927	32.7
987.287	33.1
987.647	20.2
988.007	36.2
988.367	9.3
988.727	6.3
989.087	14.3
989.446	33
989.806	18.7
990.166	8.8
990.525	24.2
990.885	16.5
991.244	2.7
991.604	17.7
991.963	5.1
992.322	21.4
992.682	8.4
993.041	-4
993.4	14.6
993.759	17.4
994.118	12.5
994.477	27.2
994.836	17.5
995.195	26.1
995.553	2.4
995.912	22.3
996.271	25.9
996.629	24.1
996.988	9.9
997.346	26.3
997.705	15.7
998.063	15
998.422	11.6
998.78	19.7
999.138	15.8
999.496	13.9
999.854	17.5
1000.212	29.8
1000.57	30.5
1000.928	31.3
1001.286	22.2
1001.644	15.7
1002.001	18.7
1002.359	21.8
1002.717	10.1
1003.074	27.7
1003.432	31.1
1003.789	24.1
1004.147	18.3
1004.504	1.5
1004.861	22.2
1005.218	30.4
1005.576	16.6
1005.933	27.6
1006.29	27.2
1006.647	-8.6
1007.004	-1.2
1007.36	0.7
1007.717	26.2
1008.074	-1.2
1008.431	6.5
1008.787	17.7
1009.144	-4.5
1009.5	23
1009.857	11.9
1010.213	-13.5
1010.569	29.8
1010.926	21.3
1011.282	8.5
1011.638	33.8
1011.994	-0.1
1012.35	7.2
1012.706	-2.7
1013.062	4
1013.418	18.3
1013.774	1.1
1014.13	0.8
1014.485	13.8
1014.841	22.9
1015.197	9.2
1015.552	4
1015.907	13.3
1016.263	-10.2
1016.618	36.9
1016.974	5.1
1017.329	6.1
1017.684	19.1
1018.039	7.7
1018.394	14.5
1018.749	20.2
1019.104	10.2
1019.459	32.4
1019.814	16.4
1020.168	7.9
1020.523	3.4
1020.878	5.6
1021.232	26.1
1021.587	17.6
1021.941	40.6
1022.296	-1.8
1022.65	-9.5
1023.004	-1.9
1023.359	4.2
1023.713	23.7
1024.067	-9.8
1024.421	-7.5
1024.775	16.4
1025.129	-15.4
1025.483	19.2
1025.837	-23.3
1026.19	16.9
1026.544	21.4
1026.898	6.1
1027.251	-9.7
1027.605	-7.5
1027.958	32.2
1028.312	12.3
1028.665	-9.9
1029.018	8
1029.372	1.6
1029.725	9.7
1030.078	3.9
1030.431	6.2
1030.784	-11.2
1031.137	19
1031.49	14
1031.843	4.3
1032.195	-1.4
1032.548	0.9
1032.901	9.5
1033.253	10.1
1033.606	0.8
1033.958	-3.8
1034.311	11.8
1034.663	26.9
1035.016	-14.1
1035.368	19.4
1035.72	31.2
1036.072	2.8
1036.424	8.9
1036.776	-9.6
1037.128	3.9
1037.48	-16.3
