Data from 0.1bar_Subt2__0__17-04-30-844.txt Node

Date: Thu Jan 06 17:04:30 CET 2022
User: fsatto
Spectrometer: OFX01956
Trigger mode: 0
Integration Time (sec): 6.000000E-3
Scans to average: 10
Nonlinearity correction enabled: false
Boxcar width: 0
Storing dark spectrum: false
XAxis mode: Wavelengths
Number of Pixels in Spectrum: 2136
>>>>>Begin Spectral Data<<<<<
158.236	15.5
158.705	8.3
159.174	11.1
159.643	19.6
160.112	26.7
160.582	26.9
161.051	10.1
161.52	22.5
161.988	16.6
162.457	25
162.926	10.9
163.395	41.3
163.864	17.4
164.332	-7.7
164.801	12.6
165.269	21.5
165.738	18.1
166.206	-0.4
166.675	33
167.143	17.1
167.612	18.2
168.08	5.7
168.548	9.5
169.016	16.7
169.484	22.2
169.952	32.3
170.42	23.7
170.888	31.8
171.356	7.3
171.824	13.7
172.292	15
172.759	12.7
173.227	-1.3
173.695	19.3
174.162	26.1
174.63	28.5
175.097	15
175.565	25.3
176.032	28.7
176.499	10.9
176.967	29.5
177.434	15.2
177.901	25.6
178.368	19.4
178.835	21
179.302	37.2
179.769	30.3
180.236	9.8
180.703	18.5
181.17	29.5
181.637	17.2
182.103	12.7
182.57	10.6
183.036	19.1
183.503	21
183.97	9.7
184.436	12.8
184.902	12.9
185.369	24.1
185.835	10.5
186.301	30.2
186.767	15.4
187.234	21.6
187.7	25.2
188.166	10.8
188.632	16.1
189.098	22.4
189.563	27.2
190.029	8
190.495	24
190.961	30.4
191.426	30.6
191.892	26.2
192.358	2
192.823	8.4
193.289	10.7
193.754	8.8
194.219	5.7
194.685	26.7
195.15	11.6
195.615	19.2
196.08	14.8
196.545	19.1
197.01	-1.5
197.475	16.2
197.94	15.3
198.405	16.5
198.87	-0.2
199.335	34
199.8	5.7
200.264	39.7
200.729	30.3
201.193	27.3
201.658	31.1
202.122	14.4
202.587	3.5
203.051	36
203.516	48.4
203.98	38
204.444	36.3
204.908	9.7
205.372	62.2
205.836	65.2
206.3	36.2
206.764	52.7
207.228	43.2
207.692	23.7
208.156	66.6
208.62	60.7
209.083	73.6
209.547	76.6
210.011	77.8
210.474	91.7
210.938	82
211.401	91
211.864	97.6
212.328	139.9
212.791	148.6
213.254	167.3
213.717	159.7
214.181	240.4
214.644	294.5
215.107	336.7
215.57	364.8
216.033	449.1
216.495	557
216.958	680.7
217.421	830.7
217.884	919.8
218.346	1054.4
218.809	1211.5
219.272	1297.1
219.734	1382.5
220.196	1489.8
220.659	1540
221.121	1600.5
221.584	1676.4
222.046	1770.9
222.508	1960.8
222.97	2081.2
223.432	2180.9
223.894	2376.8
224.356	2661.1
224.818	2928
225.28	3121.9
225.742	3354.7
226.204	3801.5
226.665	4083.2
227.127	4286
227.589	4482.3
228.05	4766.6
228.512	5148.2
228.973	5320.7
229.435	5267
229.896	5294
230.357	5635.1
230.818	6270.2
231.28	6592.6
231.741	6912.3
232.202	6907.3
232.663	6567.3
233.124	6629.5
233.585	7157.6
234.046	7755.3
234.507	8252.2
234.967	7971.4
235.428	7512.8
235.889	7169.7
236.349	7381.3
236.81	7724.4
237.271	7774
237.731	7210
238.191	6871.9
238.652	6675.7
239.112	7017.3
239.572	7804.5
240.033	8416.3
240.493	8299.3
240.953	7515.5
241.413	7129.3
241.873	7508.2
242.333	8050
242.793	8184.6
243.253	7883.8
243.712	7643.6
244.172	7517.5
244.632	7838
245.092	8223.1
245.551	8210
246.011	7867.6
246.47	7347.2
246.93	7397.4
247.389	7746.1
247.848	8090.6
248.308	8384.1
248.767	8372.5
249.226	8175.3
249.685	8189.4
250.144	8821.8
250.603	10059.3
251.062	11182.2
251.521	11460.4
251.98	11232.9
252.439	11117.3
252.897	11560.5
253.356	12606.4
253.815	13629.6
254.273	13711.6
254.732	13382
255.19	11908
255.649	10708.1
256.107	10564
256.566	10978.8
257.024	11623.4
257.482	11448.2
257.94	10721
258.398	10705.3
258.856	10623.3
259.315	10415.9
259.772	10059.2
260.23	9557.7
260.688	8813.6
261.146	7924.9
261.604	7412.5
262.062	7489.7
262.519	7900
262.977	8134.8
263.434	7645.2
263.892	7314.4
264.349	7301.7
264.807	7340.9
265.264	7301
265.721	7384.5
266.179	7595.7
266.636	7225.3
267.093	6872.1
267.55	6941.9
268.007	7088
268.464	7160.1
268.921	6836.9
269.378	6340.4
269.835	5750.3
270.291	5442.2
270.748	5244.5
271.205	5064
271.661	4587.5
272.118	4171.8
272.574	4004.5
273.031	3930.8
273.487	3708.6
273.944	3644.2
274.4	3653.2
274.856	3622.6
275.312	3407.1
275.768	3260.8
276.225	3271.7
276.681	3340.5
277.137	3352.5
277.593	3271.2
278.048	3214
278.504	3076.2
278.96	3018.6
279.416	2951.3
279.871	2799.6
280.327	2768.7
280.783	2686.9
281.238	2616.6
281.694	2445.7
282.149	2265.4
282.604	2247.3
283.06	2172.4
283.515	2092.8
283.97	2017.5
284.425	1830.9
284.88	1730.2
285.335	1594.8
285.79	1484.4
286.245	1348.4
286.7	1427
287.155	1501.2
287.61	1385.4
288.064	1342.2
288.519	1325.5
288.974	1319.6
289.428	1229.1
289.883	1199.1
290.337	1202.7
290.792	1181.9
291.246	1161.8
291.7	1122.4
292.155	1091.7
292.609	1072.2
293.063	1062.2
293.517	1059.6
293.971	1069.9
294.425	1024.3
294.879	1012.1
295.333	928
295.787	833.8
296.241	795.5
296.694	784.7
297.148	776.8
297.602	721.6
298.055	704.9
298.509	628.2
298.962	553
299.416	533.9
299.869	473
300.322	490.8
300.775	442.1
301.229	447.1
301.682	445
302.135	360.1
302.588	313.6
303.041	311.8
303.494	304.3
303.947	278.3
304.4	266.2
304.852	266.5
305.305	233.5
305.758	202.7
306.21	176.6
306.663	173.6
307.115	145.2
307.568	154.7
308.02	154.1
308.473	131.5
308.925	120.3
309.377	102.6
309.829	106.5
310.282	83.1
310.734	105.6
311.186	98.9
311.638	90.1
312.09	52.9
312.542	48.7
312.993	87
313.445	66.1
313.897	89.8
314.349	53.6
314.8	83.6
315.252	60.3
315.703	44.2
316.155	58.8
316.606	38.8
317.058	63.3
317.509	72.4
317.96	77.1
318.411	40.3
318.863	27.5
319.314	42.4
319.765	35.9
320.216	55.1
320.667	36.3
321.117	36.1
321.568	35.3
322.019	31
322.47	39
322.921	37
323.371	30.6
323.822	19.9
324.272	32.9
324.723	36.2
325.173	35.9
325.623	32.1
326.074	38.9
326.524	35.9
326.974	40.8
327.424	23.7
327.874	22.6
328.325	28.8
328.775	33.2
329.224	9.3
329.674	30.8
330.124	24.6
330.574	24.6
331.024	35.2
331.473	7.6
331.923	39.1
332.373	24.1
332.822	17.5
333.272	6.6
333.721	2.3
334.17	3.3
334.62	31.9
335.069	15.8
335.518	14.7
335.967	21.8
336.416	10
336.865	17.8
337.314	30
337.763	-1.1
338.212	1.8
338.661	26.4
339.11	3.3
339.558	-0.2
340.007	10.5
340.456	21.9
340.904	33.2
341.353	19.5
341.801	8.8
342.25	9.1
342.698	13.4
343.146	39.1
343.595	4.6
344.043	41.7
344.491	21.5
344.939	1.8
345.387	10
345.835	6.6
346.283	16.8
346.731	10.8
347.179	-5.7
347.626	11
348.074	17.8
348.522	16
348.969	6.8
349.417	-16
349.865	40.6
350.312	35.8
350.759	24.5
351.207	15.2
351.654	6
352.101	-8.6
352.548	24.2
352.996	4
353.443	42.3
353.89	18.9
354.337	20.9
354.784	9.1
355.231	42.9
355.677	15.3
356.124	4.4
356.571	24.8
357.018	18.9
357.464	22.2
357.911	33.4
358.357	12.3
358.804	10.9
359.25	38.8
359.696	10.3
360.143	7.1
360.589	16.5
361.035	5.2
361.481	26.6
361.927	12.8
362.373	17.5
362.819	38.1
363.265	2.2
363.711	3.2
364.157	11.4
364.603	-9.8
365.048	18.1
365.494	13.3
365.94	26
366.385	25.7
366.831	14.2
367.276	1.4
367.722	23.5
368.167	5.8
368.612	0.1
369.057	6.1
369.503	6.8
369.948	-5.3
370.393	27.8
370.838	1.1
371.283	36.2
371.728	30.9
372.173	-0.9
372.617	-3.9
373.062	-9.7
373.507	5.1
373.951	15.2
374.396	27.5
374.841	6.4
375.285	15.8
375.729	6.8
376.174	-12.1
376.618	33.4
377.062	10.6
377.507	16.6
377.951	4.5
378.395	34.6
378.839	5.6
379.283	14
379.727	16.8
380.171	9.3
380.615	17.6
381.059	16.3
381.502	12.8
381.946	7.3
382.39	32.2
382.833	15.2
383.277	-2.4
383.72	18.8
384.164	19.5
384.607	1.8
385.05	22.2
385.494	8.3
385.937	10.4
386.38	2.4
386.823	44.4
387.266	32.1
387.709	1.7
388.152	25
388.595	-1.9
389.038	-1.5
389.481	15.2
389.923	3.2
390.366	16.7
390.809	20.5
391.251	7.7
391.694	24.6
392.136	15
392.579	-6.9
393.021	-5.5
393.463	9.5
393.906	-18.7
394.348	5.6
394.79	7.1
395.232	8.3
395.674	15.1
396.116	0.1
396.558	24.5
397	13.8
397.442	30.7
397.884	15.5
398.325	15.6
398.767	23.8
399.209	3.9
399.65	-3.8
400.092	27
400.533	20.6
400.974	6.9
401.416	12.8
401.857	7.5
402.298	28.7
402.74	15.4
403.181	10
403.622	21
404.063	21.9
404.504	11.1
404.945	22.4
405.386	6.4
405.826	14.8
406.267	-2.6
406.708	12
407.149	13.4
407.589	14.9
408.03	-15.3
408.47	-1.3
408.911	6.6
409.351	-4.4
409.791	8.2
410.232	1.7
410.672	10.5
411.112	10.6
411.552	10.9
411.992	33.1
412.432	26.2
412.872	14.1
413.312	23.9
413.752	9.4
414.192	3.6
414.632	20.4
415.071	0.3
415.511	17.4
415.951	5.9
416.39	11
416.83	22.2
417.269	13.3
417.708	-5.9
418.148	20.9
418.587	14.1
419.026	5.3
419.465	-2.7
419.904	39.3
420.344	27.1
420.783	9.7
421.221	20.9
421.66	-3.7
422.099	26.7
422.538	14.9
422.977	17.9
423.415	-0.6
423.854	14.1
424.293	13.8
424.731	0.9
425.17	31
425.608	4.2
426.046	26.3
426.485	-1.5
426.923	19.3
427.361	22.3
427.799	22.5
428.237	9.5
428.675	27.3
429.113	14.1
429.551	12.9
429.989	6.9
430.427	8.2
430.865	13
431.303	9.4
431.74	-5.3
432.178	12.5
432.615	25
433.053	0.2
433.49	25.3
433.928	14.9
434.365	11.5
434.802	12.3
435.24	38.1
435.677	15.2
436.114	4.8
436.551	8
436.988	2.1
437.425	5.1
437.862	5.6
438.299	8
438.736	24.8
439.172	7.7
439.609	15.2
440.046	3.4
440.482	25.9
440.919	36
441.355	11
441.792	15.7
442.228	0.8
442.665	1.6
443.101	6.2
443.537	42.1
443.973	29.6
444.409	33.6
444.845	20.6
445.281	13.8
445.717	21.7
446.153	23.1
446.589	24.9
447.025	10.5
447.461	16
447.896	14
448.332	14.3
448.768	22.3
449.203	32.4
449.639	8
450.074	3.5
450.509	29.8
450.945	27.5
451.38	20.3
451.815	15.8
452.25	9
452.685	12.8
453.12	28.4
453.555	33.4
453.99	11.7
454.425	57.4
454.86	21.5
455.295	22.3
455.73	16.7
456.164	-14.6
456.599	28.7
457.033	14.7
457.468	25.1
457.902	17.7
458.337	27.9
458.771	19.4
459.205	42.2
459.64	29.7
460.074	23.1
460.508	32.9
460.942	25.7
461.376	16.9
461.81	24.7
462.244	32.1
462.678	3
463.112	17.6
463.545	2.3
463.979	12.2
464.413	12.1
464.846	16.4
465.28	23.5
465.713	18.4
466.147	41.7
466.58	30.6
467.014	-2.7
467.447	11.7
467.88	4.3
468.313	21.2
468.746	29.9
469.179	23.1
469.612	11.5
470.045	31.5
470.478	29.4
470.911	18.4
471.344	14.5
471.777	22.9
472.209	22.1
472.642	27.2
473.074	16
473.507	43.1
473.939	33.2
474.372	25.6
474.804	9.9
475.236	10.1
475.669	36.3
476.101	32.6
476.533	59
476.965	19.4
477.397	16.1
477.829	23.4
478.261	14.1
478.693	27.8
479.125	24.6
479.557	15.6
479.988	28.1
480.42	30.3
480.852	19.6
481.283	35.9
481.715	23
482.146	21.2
482.577	26.4
483.009	6.8
483.44	36.9
483.871	28.2
484.302	15.6
484.734	26.6
485.165	23.6
485.596	8.8
486.027	33.5
486.457	33
486.888	19.8
487.319	22.5
487.75	32.2
488.181	49
488.611	18.5
489.042	19.8
489.472	22.7
489.903	44.3
490.333	20.4
490.764	5.7
491.194	48.8
491.624	29.8
492.054	30.5
492.484	14.3
492.915	23.6
493.345	21.9
493.775	20.2
494.204	13.5
494.634	26.1
495.064	11.9
495.494	42
495.924	11.3
496.353	28.5
496.783	28.7
497.212	21.5
497.642	1.4
498.071	21
498.501	18.4
498.93	16.4
499.359	19.9
499.789	25.4
500.218	35
500.647	29.4
501.076	39.5
501.505	20.9
501.934	6.1
502.363	30.5
502.792	37.4
503.221	42.3
503.649	22.7
504.078	21.4
504.507	38.4
504.935	10.2
505.364	23.4
505.792	34.5
506.221	28.1
506.649	8.2
507.077	11.4
507.506	40
507.934	52.4
508.362	-4.2
508.79	-2.5
509.218	11.3
509.646	3.5
510.074	12.5
510.502	11.9
510.93	15
511.357	18.9
511.785	10.2
512.213	-4.2
512.64	19.8
513.068	32.4
513.496	21
513.923	17
514.35	6
514.778	12
515.205	49.9
515.632	15.5
516.059	14.4
516.486	-1.5
516.914	21.8
517.341	13
517.768	24.5
518.194	9
518.621	10.9
519.048	16.7
519.475	32.3
519.902	24.9
520.328	32.2
520.755	1.3
521.181	13.7
521.608	13.3
522.034	6.6
522.461	9.8
522.887	30.9
523.313	22.3
523.739	19.6
524.165	21.7
524.592	23
525.018	25.2
525.444	15.8
525.869	19.7
526.295	-5.3
526.721	-1.1
527.147	5.7
527.573	23.3
527.998	35.9
528.424	-5
528.849	1.6
529.275	5.6
529.7	13.4
530.126	23.6
530.551	15.5
530.976	20.6
531.402	28.3
531.827	6.1
532.252	19.4
532.677	-2.1
533.102	20.9
533.527	22.1
533.952	-1.1
534.377	7.7
534.801	22.4
535.226	18
535.651	31.6
536.076	19.6
536.5	5.7
536.925	16.3
537.349	-2.4
537.773	29
538.198	28.8
538.622	39.2
539.046	26.1
539.471	25.2
539.895	20
540.319	24.3
540.743	0.3
541.167	-0.9
541.591	-11.7
542.015	12.1
542.438	12.5
542.862	34.9
543.286	5.7
543.71	6.4
544.133	10.6
544.557	17.7
544.98	-12.8
545.404	32.2
545.827	16.2
546.25	-3.9
546.674	12.6
547.097	22.5
547.52	-0.7
547.943	17.8
548.366	38.2
548.789	-8.8
549.212	1
549.635	23
550.058	33.2
550.481	31.5
550.903	45.5
551.326	32.5
551.749	12.9
552.171	0.9
552.594	27.8
553.016	16.1
553.438	18.5
553.861	16.7
554.283	22.6
554.705	16.9
555.128	10.1
555.55	-10.6
555.972	47.8
556.394	2.4
556.816	34.4
557.238	44
557.659	19.6
558.081	-12.4
558.503	22.1
558.925	16.7
559.346	-6.3
559.768	17.1
560.189	37.5
560.611	11
561.032	27.5
561.454	30.2
561.875	17.6
562.296	11.9
562.718	8.5
563.139	33.2
563.56	10.3
563.981	18.3
564.402	21
564.823	20.6
565.244	18.1
565.664	35.8
566.085	17.3
566.506	24.1
566.927	12
567.347	53.1
567.768	31.2
568.188	23.3
568.609	11.7
569.029	8.2
569.449	4.6
569.87	49.4
570.29	16.8
570.71	15
571.13	26.2
571.55	19.6
571.97	36.1
572.39	14.9
572.81	38.9
573.23	2.2
573.65	44.2
574.069	32
574.489	32.2
574.909	35.1
575.328	45.5
575.748	25
576.167	11.7
576.587	6.6
577.006	52.6
577.425	12.6
577.844	38.6
578.264	-3.7
578.683	24.3
579.102	39
579.521	32
579.94	34.9
580.359	-8.9
580.778	19.1
581.196	9.8
581.615	44.1
582.034	42.4
582.452	0.3
582.871	39.5
583.29	15.9
583.708	22.6
584.126	18.6
584.545	14.7
584.963	19.6
585.381	17.2
585.8	17.5
586.218	25.2
586.636	-6
587.054	34.5
587.472	18.5
587.89	2.9
588.308	2.4
588.725	37.4
589.143	25.2
589.561	38.5
589.979	12.5
590.396	31.3
590.814	18.7
591.231	-9.2
591.649	27.5
592.066	20.1
592.483	12.4
592.901	3.3
593.318	25.8
593.735	7.4
594.152	-7.8
594.569	-3.5
594.986	28.5
595.403	23.6
595.82	21.6
596.237	28.2
596.654	25.9
597.07	13.5
597.487	19.1
597.904	19.6
598.32	18.3
598.737	-23.3
599.153	-3.5
599.57	2.9
599.986	7.6
600.402	22.1
600.818	-3.4
601.235	7.5
601.651	16
602.067	4.1
602.483	9.1
602.899	28.5
603.315	36.7
603.73	24.2
604.146	13.7
604.562	43.4
604.978	43.6
605.393	20.5
605.809	28.1
606.224	4.6
606.64	23.2
607.055	31
607.471	38.8
607.886	-5.9
608.301	-1.7
608.716	32.3
609.131	37.2
609.547	24.7
609.962	22.2
610.377	28.2
610.791	24.3
611.206	30.1
611.621	20.4
612.036	22.1
612.451	15.7
612.865	32.3
613.28	1
613.694	33
614.109	27.1
614.523	31.4
614.938	25.2
615.352	10.6
615.766	55.5
616.18	21.8
616.595	-4.1
617.009	25.1
617.423	42
617.837	24.2
618.251	2.4
618.664	22.7
619.078	7
619.492	36.8
619.906	23.6
620.319	50.9
620.733	30.7
621.146	12.9
621.56	54.8
621.973	19.5
622.387	40.3
622.8	41.2
623.213	21.3
623.627	12.8
624.04	38.4
624.453	29.8
624.866	26.9
625.279	58.8
625.692	59.1
626.105	46.9
626.518	34.8
626.93	48.5
627.343	45.3
627.756	46.7
628.168	32
628.581	78.2
628.993	59.1
629.406	41.2
629.818	40.8
630.231	43
630.643	54
631.055	74.7
631.467	42
631.879	54.1
632.291	46.3
632.703	65.9
633.115	63.2
633.527	83.2
633.939	68.9
634.351	57.4
634.763	80.6
635.174	94.1
635.586	87.4
635.997	93
636.409	107.1
636.82	113.9
637.232	90.4
637.643	117.6
638.054	93.9
638.466	99.1
638.877	146
639.288	124.9
639.699	100.3
640.11	120.7
640.521	124.6
640.932	118.4
641.343	117.8
641.753	120.8
642.164	111.8
642.575	141.3
642.986	157.9
643.396	135.7
643.807	125.8
644.217	136.8
644.627	132
645.038	132.4
645.448	135.3
645.858	135.3
646.269	135.7
646.679	160.2
647.089	141.9
647.499	118.1
647.909	155.6
648.319	118.6
648.728	137
649.138	117.8
649.548	147.2
649.958	140.8
650.367	121.7
650.777	116.8
651.186	129.5
651.596	166.4
652.005	137.5
652.415	121.6
652.824	129.6
653.233	113.4
653.642	120.3
654.052	130.6
654.461	119.1
654.87	112.1
655.279	100.5
655.688	108.9
656.096	85.3
656.505	118.2
656.914	105.2
657.323	100.8
657.731	88.1
658.14	133.8
658.548	89.6
658.957	95.1
659.365	69.8
659.774	105.7
660.182	80.7
660.59	96.6
660.998	90.5
661.407	84.1
661.815	71.5
662.223	101
662.631	60.9
663.039	88.1
663.446	88
663.854	99.7
664.262	88.6
664.67	87.4
665.077	73.2
665.485	89.5
665.892	54.7
666.3	61.9
666.707	71.6
667.115	58
667.522	65.5
667.929	92.1
668.337	50.1
668.744	43
669.151	49.8
669.558	65.1
669.965	83.2
670.372	55.9
670.779	44
671.185	52.6
671.592	33.9
671.999	48.1
672.405	44.1
672.812	53.6
673.219	41.1
673.625	21.9
674.032	30
674.438	37
674.844	28.7
675.25	53
675.657	16.8
676.063	19.6
676.469	12.2
676.875	37.6
677.281	22.1
677.687	14.5
678.093	17.5
678.499	28.1
678.904	24.7
679.31	14.4
679.716	30.7
680.121	3.4
680.527	15.3
680.932	47.3
681.338	10
681.743	20.2
682.148	1.4
682.554	26.7
682.959	10.2
683.364	11.4
683.769	5
684.174	3.8
684.579	19.7
684.984	9.4
685.389	17.3
685.794	14.4
686.199	29.5
686.603	9.9
687.008	22.6
687.413	11.5
687.817	8.1
688.222	-6.5
688.626	11
689.03	9.1
689.435	15.3
689.839	1.3
690.243	17.7
690.647	14.6
691.051	19
691.456	2.3
691.859	-1.3
692.263	15.4
692.667	-3.5
693.071	-1.2
693.475	21.2
693.879	20.6
694.282	9.7
694.686	9.4
695.089	43.3
695.493	34.2
695.896	15.9
696.3	23.1
696.703	9.7
697.106	16
697.509	-11
697.913	25.1
698.316	9.8
698.719	35.2
699.122	11.3
699.525	8.6
699.928	19.6
700.33	32.2
700.733	32.4
701.136	12.4
701.539	15.1
701.941	18
702.344	13.9
702.746	14.6
703.149	28.1
703.551	-5.3
703.953	2.6
704.356	4.7
704.758	42.2
705.16	23.5
705.562	2.5
705.964	6
706.366	32.8
706.768	12.9
707.17	-7.9
707.572	18.2
707.973	32.2
708.375	20.5
708.777	18.1
709.178	9.5
709.58	36.3
709.981	23.2
710.383	18.6
710.784	21.7
711.186	24.5
711.587	-4.9
711.988	8.2
712.389	24.6
712.79	24.9
713.191	21.3
713.592	35.9
713.993	-9.3
714.394	3.9
714.795	16.4
715.196	-5
715.596	-1.5
715.997	10.4
716.398	-1.4
716.798	18.3
717.199	20.1
717.599	24.9
718	10.1
718.4	24.8
718.8	9
719.2	19.2
719.6	18.3
720.001	16.9
720.401	20.4
720.801	20.6
721.201	30.7
721.6	28.6
722	31.6
722.4	7.6
722.8	16.1
723.199	-4.3
723.599	11.9
723.998	2.1
724.398	45
724.797	14.6
725.197	-7.3
725.596	6.1
725.995	6.7
726.394	10.2
726.794	4.3
727.193	-5
727.592	6.8
727.991	8.6
728.39	4.1
728.789	9.9
729.187	15.7
729.586	1.6
729.985	12.8
730.383	10.1
730.782	-4.6
731.181	10.9
731.579	38
731.977	10.8
732.376	0.9
732.774	13.3
733.172	4.1
733.571	9
733.969	13.8
734.367	1
734.765	28.1
735.163	10.8
735.561	-0.6
735.959	12
736.356	44.3
736.754	29.6
737.152	11.4
737.55	24.5
737.947	25.4
738.345	27.7
738.742	32.1
739.14	51.3
739.537	41.8
739.934	40.6
740.331	35.4
740.729	33.6
741.126	40.1
741.523	38.7
741.92	26
742.317	30.3
742.714	37.1
743.111	35.4
743.507	22.2
743.904	42.8
744.301	20.8
744.697	37.4
745.094	64.9
745.491	23.5
745.887	42.7
746.283	41.4
746.68	20.2
747.076	42.8
747.472	45.1
747.869	21.4
748.265	34.2
748.661	33.7
749.057	41.1
749.453	53.9
749.849	35.6
750.244	66.2
750.64	66.1
751.036	26.8
751.432	39.2
751.827	58.7
752.223	55.7
752.618	64.6
753.014	27.8
753.409	61.1
753.805	46.3
754.2	62.9
754.595	57.2
754.99	53.4
755.385	54.7
755.78	59.9
756.175	47.2
756.57	66.2
756.965	79.5
757.36	66.6
757.755	71
758.15	86.1
758.544	83.1
758.939	72.2
759.334	84.4
759.728	109.8
760.122	83.9
760.517	113.8
760.911	89.6
761.306	95.2
761.7	91.2
762.094	101.2
762.488	84.1
762.882	72.6
763.276	60.4
763.67	75.5
764.064	73.5
764.458	70.6
764.852	79.8
765.245	69.1
765.639	95.2
766.033	102.3
766.426	103.2
766.82	105.7
767.213	119.1
767.606	83.5
768	92.7
768.393	74.7
768.786	85.3
769.179	100.7
769.572	61.1
769.966	86.6
770.358	70.9
770.751	68.3
771.144	65.4
771.537	79.1
771.93	76.7
772.323	86.2
772.715	77.1
773.108	54.2
773.5	76
773.893	57.5
774.285	83.5
774.678	50.1
775.07	46.9
775.462	33.9
775.854	28.5
776.247	41
776.639	41.9
777.031	51.4
777.423	39.7
777.815	47.1
778.207	63.9
778.598	56.7
778.99	84.2
779.382	73.8
779.773	89.8
780.165	122.5
780.557	93.8
780.948	116.2
781.339	125.4
781.731	93.4
782.122	136.1
782.513	144.7
782.905	116.2
783.296	126.4
783.687	162.2
784.078	115.1
784.469	124.5
784.86	120.8
785.251	84.1
785.641	120.4
786.032	92.5
786.423	95.9
786.813	106.3
787.204	89.2
787.594	95
787.985	80.2
788.375	75.4
788.766	67.8
789.156	62.8
789.546	104
789.936	55.6
790.326	77.3
790.717	75.8
791.107	55.1
791.497	74.1
791.886	68.5
792.276	47.6
792.666	48.9
793.056	46.9
793.445	40.3
793.835	51.6
794.225	38.5
794.614	38.3
795.004	56.7
795.393	68.8
795.782	29
796.172	25.2
796.561	42.9
796.95	37.5
797.339	49.5
797.728	58
798.117	44.6
798.506	37.4
798.895	46.3
799.284	27.8
799.673	82.1
800.061	40.8
800.45	46.3
800.839	20
801.227	37
801.616	19.2
802.004	24
802.392	41.8
802.781	28.2
803.169	31.5
803.557	28.5
803.945	44.1
804.333	28.2
804.721	29.7
805.109	22.9
805.497	52.6
805.885	26.1
806.273	24.1
806.661	18.8
807.048	9.8
807.436	20.6
807.824	29.2
808.211	24.3
808.599	20.5
808.986	23.8
809.373	46.8
809.761	48.1
810.148	34.5
810.535	35
810.922	40.3
811.309	39.5
811.696	19.2
812.083	33.5
812.47	24
812.857	21.2
813.244	30.9
813.631	21.4
814.017	41.4
814.404	24.9
814.791	35.8
815.177	42.7
815.564	36.8
815.95	3.9
816.336	35.9
816.723	23.7
817.109	34.3
817.495	36.4
817.881	20.6
818.267	11.1
818.653	28.6
819.039	24.2
819.425	24.9
819.811	18.1
820.197	29.4
820.582	8.6
820.968	45.7
821.354	12.9
821.739	24.3
822.125	8.1
822.51	3.5
822.895	26.1
823.281	12.5
823.666	36.1
824.051	30.1
824.436	-14.1
824.822	13.3
825.207	31.7
825.592	9.6
825.976	10.3
826.361	16
826.746	29.8
827.131	13.6
827.516	32.4
827.9	13
828.285	26.2
828.669	8.7
829.054	20.2
829.438	11.7
829.823	7.7
830.207	25.6
830.591	31
830.975	39.5
831.36	32.8
831.744	2.9
832.128	36.3
832.512	14.2
832.895	31.3
833.279	18.8
833.663	27.3
834.047	-5.7
834.431	24.6
834.814	38.5
835.198	21.4
835.581	22.2
835.965	11.6
836.348	19.3
836.731	11.7
837.115	20.8
837.498	1.1
837.881	27.8
838.264	26.7
838.647	-28.8
839.03	16.4
839.413	12.1
839.796	14.5
840.179	15
840.562	18
840.944	21.4
841.327	45.1
841.71	31.3
842.092	34.8
842.475	7.8
842.857	24.7
843.24	30.2
843.622	24.2
844.004	23.5
844.386	30.5
844.769	21.6
845.151	10.6
845.533	37.5
845.915	20.4
846.297	24.6
846.678	53.6
847.06	-3.3
847.442	24.2
847.824	23.2
848.205	21.1
848.587	21.4
848.968	19.9
849.35	39.1
849.731	43.3
850.113	8.8
850.494	17.6
850.875	20.1
851.256	22.4
851.638	22.7
852.019	-8.4
852.4	15.1
852.781	40.1
853.161	19
853.542	27.6
853.923	41.5
854.304	24.9
854.685	14.2
855.065	7.3
855.446	14.7
855.826	-0.9
856.207	3
856.587	30
856.967	15.7
857.348	11.6
857.728	0.4
858.108	2.3
858.488	-0.5
858.868	15.4
859.248	2.6
859.628	14.3
860.008	23.8
860.388	-5.3
860.768	7.9
861.147	-1.6
861.527	15.1
861.907	16
862.286	20.9
862.666	30.3
863.045	13.6
863.424	40.7
863.804	7.2
864.183	14.4
864.562	19
864.941	15.8
865.32	28.9
865.699	37
866.078	11.2
866.457	24.2
866.836	20.6
867.215	22.9
867.594	6.6
867.972	-2
868.351	15.4
868.729	31.5
869.108	7.8
869.486	18.6
869.865	20.1
870.243	7
870.621	4.2
871	11.2
871.378	30.4
871.756	29.8
872.134	36.7
872.512	19.6
872.89	12.4
873.268	11.3
873.646	34.1
874.023	21.1
874.401	2
874.779	11
875.156	8.7
875.534	6.2
875.911	12.3
876.289	42.4
876.666	14.7
877.043	32.8
877.421	20.4
877.798	46.5
878.175	19.1
878.552	11.9
878.929	21.3
879.306	16.2
879.683	38.1
880.06	22.8
880.437	24.1
880.813	7.6
881.19	11.6
881.567	19.5
881.943	-1.1
882.32	11.8
882.696	17.8
883.073	30.5
883.449	21
883.825	20.7
884.202	13.1
884.578	31.1
884.954	9.5
885.33	2.6
885.706	20.9
886.082	22.5
886.458	11.1
886.834	22
887.209	3.9
887.585	-2.7
887.961	1.2
888.336	24.4
888.712	34.2
889.087	24
889.463	-6
889.838	23.8
890.213	18.6
890.589	11.4
890.964	21.4
891.339	18.1
891.714	15.5
892.089	22.3
892.464	19
892.839	25.8
893.214	11.2
893.589	11.3
893.963	28.9
894.338	11
894.713	17.9
895.087	41.9
895.462	22.3
895.836	34.9
896.211	20.6
896.585	9.7
896.959	-0.1
897.334	21.5
897.708	3.7
898.082	17.4
898.456	25.9
898.83	10.7
899.204	2.6
899.578	-2.4
899.952	38.9
900.325	26.3
900.699	6.3
901.073	13.3
901.446	26.7
901.82	17.3
902.193	19.8
902.567	25.7
902.94	13.7
903.313	20.3
903.687	29.3
904.06	5.9
904.433	12.3
904.806	34.5
905.179	16.5
905.552	-13
905.925	19.5
906.298	17.8
906.671	22.8
907.043	14
907.416	28.5
907.789	25.1
908.161	31.5
908.534	19.4
908.906	35
909.279	7.6
909.651	31.3
910.023	3
910.396	26.7
910.768	22.8
911.14	19.5
911.512	14.5
911.884	8
912.256	12.2
912.628	24.1
912.999	31.7
913.371	12.5
913.743	24.3
914.115	30
914.486	14.7
914.858	21.4
915.229	10.3
915.601	24.5
915.972	15.9
916.343	23.6
916.715	36.9
917.086	16.8
917.457	39.6
917.828	21.3
918.199	28.2
918.57	19.6
918.941	1.1
919.312	39.9
919.682	22.1
920.053	19.2
920.424	5.9
920.794	43.5
921.165	16.2
921.536	29.9
921.906	31.4
922.276	10.3
922.647	51.7
923.017	19.3
923.387	9.3
923.757	20.9
924.127	20.9
924.497	23.2
924.867	33.7
925.237	28.9
925.607	10.5
925.977	32.5
926.347	39.2
926.716	37.2
927.086	-0.5
927.456	22.5
927.825	33.5
928.195	25
928.564	26.1
928.933	39.2
929.303	10.5
929.672	38.5
930.041	17.6
930.41	26.7
930.779	17.4
931.148	13.5
931.517	17.3
931.886	5.2
932.255	44.8
932.624	34.8
932.993	36.4
933.361	42.3
933.73	37.3
934.098	27.3
934.467	11.7
934.835	13.2
935.204	25.9
935.572	34.1
935.94	7.5
936.308	20.2
936.677	14.9
937.045	19.6
937.413	27.3
937.781	32.9
938.149	22.6
938.516	25.4
938.884	8.3
939.252	4.6
939.62	20
939.987	38.9
940.355	34.6
940.722	28.5
941.09	21
941.457	13.2
941.825	41.6
942.192	23.1
942.559	11.9
942.926	22.6
943.293	26.5
943.66	18.3
944.027	11.3
944.394	20.3
944.761	22.9
945.128	14.4
945.495	10.8
945.861	34.3
946.228	33.5
946.595	36.4
946.961	22.8
947.328	9.7
947.694	32.9
948.06	-10.8
948.427	18.5
948.793	35.8
949.159	23.9
949.525	38.1
949.891	-0.6
950.257	40.2
950.623	22.1
950.989	-2.5
951.355	40.4
951.721	23.5
952.087	11
952.452	27.3
952.818	30.3
953.183	10.6
953.549	17.8
953.914	41.2
954.28	25.1
954.645	34.4
955.01	30.7
955.375	11
955.741	21.3
956.106	28.3
956.471	53.3
956.836	21
957.201	30.8
957.566	34.5
957.93	29.6
958.295	28.4
958.66	-2.1
959.024	10.6
959.389	11
959.753	5.4
960.118	20.5
960.482	26.3
960.847	18.5
961.211	39
961.575	2.3
961.939	24.3
962.303	24
962.667	33.7
963.031	23.1
963.395	11.7
963.759	39.6
964.123	6.3
964.487	5.1
964.851	11.7
965.214	33.6
965.578	31.1
965.941	5.5
966.305	11.8
966.668	9.1
967.032	14
967.395	7.8
967.758	27.5
968.121	27.8
968.484	38.2
968.847	16.8
969.21	30.6
969.573	14.4
969.936	25.6
970.299	23.8
970.662	20.6
971.025	16.3
971.387	29.7
971.75	22.2
972.112	5.9
972.475	12
972.837	39.2
973.2	18.4
973.562	11.4
973.924	12.4
974.286	25.1
974.649	19.9
975.011	29.4
975.373	-5.8
975.735	36.8
976.097	15.4
976.458	10.3
976.82	-1.2
977.182	16.7
977.544	13.4
977.905	35.3
978.267	2.8
978.628	-4
978.99	7.9
979.351	7.4
979.712	17.6
980.074	5.8
980.435	21.9
980.796	-0.4
981.157	2.1
981.518	2.3
981.879	8.1
982.24	1.7
982.601	12.5
982.962	-15.9
983.323	16.1
983.683	14.5
984.044	12.9
984.404	-17.6
984.765	21.9
985.125	12.5
985.486	0.2
985.846	21.3
986.206	24.2
986.567	25.9
986.927	33.5
987.287	32.7
987.647	17
988.007	44.2
988.367	7.2
988.727	15.8
989.087	16.9
989.446	31.3
989.806	25.3
990.166	12.2
990.525	20.4
990.885	12.6
991.244	-6.1
991.604	18.4
991.963	3.5
992.322	37.8
992.682	7.9
993.041	-4.8
993.4	20.6
993.759	20.3
994.118	6.2
994.477	38.5
994.836	18.1
995.195	35.8
995.553	3.7
995.912	18.8
996.271	32.3
996.629	27.5
996.988	13.6
997.346	26
997.705	20
998.063	15.3
998.422	12.5
998.78	9.2
999.138	16.3
999.496	17.3
999.854	18.1
1000.212	27.7
1000.57	38.6
1000.928	31.5
1001.286	17.8
1001.644	19.1
1002.001	12.4
1002.359	22.5
1002.717	12.4
1003.074	27
1003.432	25.2
1003.789	15.2
1004.147	19.4
1004.504	2.7
1004.861	17.8
1005.218	28.1
1005.576	13.1
1005.933	16.5
1006.29	23.7
1006.647	-4.9
1007.004	2.7
1007.36	4.1
1007.717	23
1008.074	-10.9
1008.431	9.5
1008.787	23.9
1009.144	6
1009.5	28.7
1009.857	17.4
1010.213	-5.7
1010.569	44.9
1010.926	24.6
1011.282	14.8
1011.638	32.2
1011.994	1.3
1012.35	14.2
1012.706	-2.6
1013.062	4.2
1013.418	10.7
1013.774	8.8
1014.13	-2.7
1014.485	13
1014.841	25.4
1015.197	3.9
1015.552	4
1015.907	16.6
1016.263	-1.6
1016.618	42.3
1016.974	11.3
1017.329	2.3
1017.684	21.6
1018.039	3.8
1018.394	9.3
1018.749	20.3
1019.104	8.1
1019.459	26.6
1019.814	21.2
1020.168	12.8
1020.523	10.7
1020.878	7.5
1021.232	30.5
1021.587	26
1021.941	43.6
1022.296	-0.6
1022.65	-8.6
1023.004	-5.8
1023.359	11.7
1023.713	24.1
1024.067	-11
1024.421	-5.7
1024.775	15.9
1025.129	-9.8
1025.483	23.1
1025.837	-18.3
1026.19	30
1026.544	28.5
1026.898	2.8
1027.251	2.7
1027.605	-10.8
1027.958	29.2
1028.312	9.9
1028.665	-12.1
1029.018	13.2
1029.372	-1.4
1029.725	9.3
1030.078	5.6
1030.431	3.8
1030.784	-15.6
1031.137	28.4
1031.49	19
1031.843	15
1032.195	6.3
1032.548	6.8
1032.901	7.6
1033.253	6.7
1033.606	5.4
1033.958	-3.4
1034.311	8.5
1034.663	17.9
1035.016	-13.9
1035.368	12.3
1035.72	37.8
1036.072	8.1
1036.424	10.3
1036.776	-4.3
1037.128	9.5
1037.48	-14.8
