Data from 0.10bar_Subt2__0__18-01-53-173.txt Node

Date: Thu Jan 06 18:01:53 CET 2022
User: fsatto
Spectrometer: OFX01956
Trigger mode: 0
Integration Time (sec): 2.000000E-3
Scans to average: 10
Nonlinearity correction enabled: false
Boxcar width: 0
Storing dark spectrum: false
XAxis mode: Wavelengths
Number of Pixels in Spectrum: 2136
>>>>>Begin Spectral Data<<<<<
158.236	28.9
158.705	22.9
159.174	30.1
159.643	18.8
160.112	35.5
160.582	25.8
161.051	38
161.52	24
161.988	30
162.457	25.2
162.926	25.9
163.395	28.7
163.864	22.1
164.332	27.5
164.801	13.7
165.269	29.9
165.738	24.6
166.206	28
166.675	32.9
167.143	28.1
167.612	18.9
168.08	26.1
168.548	22.6
169.016	28.1
169.484	24.9
169.952	29.7
170.42	23.3
170.888	22.8
171.356	29.9
171.824	19.9
172.292	23.4
172.759	31
173.227	32.3
173.695	24.1
174.162	33.7
174.63	30.9
175.097	23.9
175.565	25.6
176.032	27
176.499	29
176.967	23
177.434	20
177.901	25.5
178.368	29.9
178.835	21.7
179.302	27.1
179.769	25.9
180.236	26.2
180.703	20.5
181.17	28
181.637	16.8
182.103	29.3
182.57	23.7
183.036	27
183.503	28.6
183.97	29.8
184.436	28.6
184.902	31.5
185.369	28.6
185.835	20.6
186.301	28.8
186.767	22.3
187.234	31.7
187.7	20.9
188.166	20.2
188.632	24.2
189.098	28.9
189.563	22.4
190.029	24.3
190.495	24.8
190.961	28.4
191.426	17.5
191.892	30.1
192.358	28.9
192.823	24.2
193.289	33.2
193.754	21.2
194.219	34.1
194.685	38.6
195.15	26.5
195.615	21.7
196.08	31.4
196.545	28.3
197.01	27.7
197.475	24.6
197.94	19
198.405	31.7
198.87	29.3
199.335	29.9
199.8	22.5
200.264	105.7
200.729	103.1
201.193	95
201.658	107.5
202.122	110.9
202.587	113.8
203.051	105.3
203.516	117.8
203.98	129.6
204.444	126.1
204.908	141.6
205.372	152.4
205.836	150.9
206.3	165.8
206.764	185.7
207.228	168.2
207.692	179
208.156	203.6
208.62	239.7
209.083	273.5
209.547	287.4
210.011	352
210.474	375.7
210.938	453.5
211.401	504.8
211.864	605
212.328	686.3
212.791	779.6
213.254	919.1
213.717	1049.1
214.181	1233.5
214.644	1473
215.107	1672.1
215.57	1827.4
216.033	2179.8
216.495	2590
216.958	3059.8
217.421	3275.9
217.884	3550.3
218.346	3950.9
218.809	4382.8
219.272	4815.4
219.734	5163.1
220.196	5527.2
220.659	5953.6
221.121	6357
221.584	6822.3
222.046	7584.4
222.508	8179.5
222.97	8672.1
223.432	9113.5
223.894	9882.8
224.356	10952.7
224.818	11764.9
225.28	12303.4
225.742	13108.9
226.204	14734.9
226.665	16154.5
227.127	16914.3
227.589	17839.5
228.05	18924.8
228.512	19954.9
228.973	20554.3
229.435	20320.6
229.896	19637
230.357	20332.4
230.818	21830.9
231.28	22345.3
231.741	22628.8
232.202	22291.4
232.663	21436.6
233.124	21663.2
233.585	23006.6
234.046	24591.9
234.507	24505.2
234.967	22829
235.428	21893.1
235.889	22307.1
236.349	24162.2
236.81	26204.4
237.271	26841.2
237.731	26019.2
238.191	24587.7
238.652	24310.2
239.112	25697.7
239.572	28147.5
240.033	28998.7
240.493	26403.5
240.953	23332.8
241.413	22042.3
241.873	22692.6
242.333	23865
242.793	23440.6
243.253	22102
243.712	21723.3
244.172	21708.6
244.632	21837.5
245.092	22969.3
245.551	23309.3
246.011	23024.6
246.47	22677
246.93	23691.3
247.389	26461.1
247.848	28688
248.308	29423
248.767	29533.1
249.226	29368.4
249.685	30070.9
250.144	31163.7
250.603	33388
251.062	34591.2
251.521	33890
251.98	31989.8
252.439	30781.6
252.897	30593.8
253.356	32027.3
253.815	33471.9
254.273	34157.6
254.732	33934.5
255.19	30027.2
255.649	26393.5
256.107	25192.6
256.566	25734.8
257.024	27850.6
257.482	28247.5
257.94	26639.8
258.398	26995.1
258.856	27178.2
259.315	26891.3
259.772	26754
260.23	26555.9
260.688	25850.8
261.146	24674.5
261.604	23570.1
262.062	23467.4
262.519	23978.3
262.977	24373.3
263.434	23003.6
263.892	22066.5
264.349	22383.9
264.807	22563.2
265.264	21867.9
265.721	20735.1
266.179	20318
266.636	19084.3
267.093	18038.8
267.55	17840.3
268.007	18178.1
268.464	18066
268.921	17658
269.378	16516.3
269.835	16067.9
270.291	16103.4
270.748	16172.6
271.205	15923
271.661	15335.2
272.118	14449.9
272.574	14277.5
273.031	14495.1
273.487	14438.3
273.944	14170.6
274.4	14035.8
274.856	13895.8
275.312	13023.7
275.768	12601.2
276.225	12530.6
276.681	12521.7
277.137	12201.9
277.593	11538.3
278.048	11068.6
278.504	10781.7
278.96	10265.5
279.416	9656.5
279.871	9068.3
280.327	8590.5
280.783	8341.9
281.238	8267
281.694	7853.3
282.149	7552.3
282.604	7407.9
283.06	7430.4
283.515	7104.4
283.97	6893.7
284.425	6584.2
284.88	6276
285.335	5994.1
285.79	5535.6
286.245	5153.4
286.7	5277.8
287.155	5462.6
287.61	5453.1
288.064	5413
288.519	5591.5
288.974	5564.8
289.428	5426.4
289.883	5454.9
290.337	5517.9
290.792	5637.5
291.246	5812.8
291.7	5766
292.155	5698.3
292.609	5570.6
293.063	5413.6
293.517	5341
293.971	5437.2
294.425	5404.8
294.879	5339.4
295.333	5192.4
295.787	4907.8
296.241	4724.6
296.694	4706.4
297.148	4805.7
297.602	4811.4
298.055	4583.2
298.509	4282
298.962	3909.1
299.416	3808.9
299.869	3799.7
300.322	3718.5
300.775	3616.5
301.229	3453.4
301.682	3342.8
302.135	3213.7
302.588	3069.3
303.041	2953.2
303.494	2800.6
303.947	2661.4
304.4	2562.1
304.852	2455.3
305.305	2267.7
305.758	2156
306.21	1994.6
306.663	1868.1
307.115	1821.4
307.568	1860.4
308.02	1820.7
308.473	1750.2
308.925	1632.1
309.377	1534.5
309.829	1502.6
310.282	1485.8
310.734	1473.7
311.186	1400.2
311.638	1320
312.09	1242.1
312.542	1192.5
312.993	1104.1
313.445	1045.4
313.897	1024.8
314.349	960
314.8	935.9
315.252	894.1
315.703	868.4
316.155	848.3
316.606	810.7
317.058	789.7
317.509	784.3
317.96	772.5
318.411	732.7
318.863	716
319.314	679.7
319.765	648.8
320.216	618.7
320.667	577.3
321.117	546.1
321.568	529.3
322.019	519.5
322.47	486.8
322.921	474.7
323.371	436.5
323.822	411.3
324.272	377.6
324.723	368
325.173	343
325.623	324.1
326.074	316.2
326.524	288.9
326.974	326.8
327.424	450.9
327.874	553
328.325	438.6
328.775	310
329.224	278.5
329.674	261.2
330.124	262.6
330.574	268
331.024	232.7
331.473	212.5
331.923	197.9
332.373	196.6
332.822	169.5
333.272	169.7
333.721	151.1
334.17	143
334.62	138.9
335.069	127.3
335.518	124
335.967	119.6
336.416	117
336.865	109.2
337.314	103.8
337.763	95.2
338.212	79.6
338.661	76.6
339.11	73.8
339.558	68.3
340.007	72.9
340.456	65.5
340.904	75.2
341.353	60.5
341.801	62.6
342.25	65.3
342.698	70
343.146	57.6
343.595	60.1
344.043	62.4
344.491	55.7
344.939	56.9
345.387	50.3
345.835	57.9
346.283	48.6
346.731	44.4
347.179	50.1
347.626	46.8
348.074	37.5
348.522	40.9
348.969	46.1
349.417	39.2
349.865	44.7
350.312	44.8
350.759	41.5
351.207	44.2
351.654	40.2
352.101	36
352.548	27.7
352.996	35
353.443	39.3
353.89	40.9
354.337	44
354.784	37.5
355.231	33.4
355.677	34.6
356.124	32.9
356.571	36.9
357.018	34.7
357.464	32.7
357.911	34.6
358.357	30.8
358.804	41.2
359.25	36
359.696	33
360.143	31.7
360.589	30.7
361.035	36.3
361.481	31.5
361.927	33.1
362.373	32.4
362.819	28
363.265	31
363.711	39.1
364.157	26.6
364.603	19.1
365.048	39.4
365.494	32.7
365.94	30.3
366.385	39.7
366.831	34.1
367.276	32.2
367.722	32.7
368.167	36.6
368.612	31.5
369.057	39.4
369.503	35.6
369.948	23
370.393	35.2
370.838	34
371.283	29.9
371.728	39.2
372.173	31.1
372.617	40
373.062	20.6
373.507	26.6
373.951	42
374.396	35.1
374.841	35.5
375.285	40.2
375.729	26.5
376.174	35.2
376.618	32.6
377.062	32.7
377.507	29.2
377.951	36.2
378.395	28.8
378.839	32.5
379.283	32.3
379.727	33.3
380.171	38.2
380.615	26.6
381.059	32.9
381.502	28
381.946	28.2
382.39	26.2
382.833	36.4
383.277	37.6
383.72	37.6
384.164	47.6
384.607	32.1
385.05	30.6
385.494	36.7
385.937	27.5
386.38	32.4
386.823	29.4
387.266	36.7
387.709	29
388.152	32.3
388.595	32.3
389.038	30.8
389.481	26
389.923	23.9
390.366	24.2
390.809	27.4
391.251	34.4
391.694	30.7
392.136	27
392.579	24.3
393.021	26.8
393.463	37.1
393.906	38.9
394.348	32.1
394.79	31.7
395.232	31
395.674	34.1
396.116	27.1
396.558	35.6
397	33.6
397.442	31.6
397.884	28.9
398.325	28.5
398.767	36.4
399.209	21
399.65	32.9
400.092	30.5
400.533	29.6
400.974	36.9
401.416	21.2
401.857	34.9
402.298	42.8
402.74	32.8
403.181	34.9
403.622	31.5
404.063	24
404.504	33.8
404.945	40.8
405.386	28.1
405.826	39.1
406.267	28.8
406.708	33.9
407.149	38.7
407.589	29.3
408.03	29.8
408.47	44.1
408.911	38.8
409.351	27.8
409.791	37
410.232	28.6
410.672	25.2
411.112	31.8
411.552	36.6
411.992	41.2
412.432	33.4
412.872	31.1
413.312	32.8
413.752	35.7
414.192	19.7
414.632	36
415.071	29.3
415.511	26.6
415.951	35.1
416.39	29.5
416.83	27.3
417.269	31.1
417.708	28.1
418.148	30.8
418.587	34.5
419.026	29.9
419.465	31
419.904	35.8
420.344	41.4
420.783	33.5
421.221	34.3
421.66	24.4
422.099	29.2
422.538	32
422.977	36.6
423.415	26.9
423.854	31.9
424.293	35.3
424.731	34.1
425.17	36.4
425.608	24.5
426.046	37.1
426.485	31.5
426.923	28.2
427.361	32.4
427.799	30.2
428.237	33.9
428.675	36.4
429.113	21.2
429.551	32.7
429.989	31.2
430.427	27.3
430.865	42
431.303	30.8
431.74	30.6
432.178	30.8
432.615	22.2
433.053	31.3
433.49	25
433.928	31.9
434.365	31.1
434.802	22.5
435.24	28.2
435.677	32.3
436.114	38.7
436.551	28.4
436.988	28.1
437.425	38.8
437.862	27.8
438.299	38.7
438.736	37.2
439.172	18.7
439.609	31.1
440.046	25.1
440.482	32.8
440.919	31.5
441.355	29.5
441.792	22.9
442.228	27.3
442.665	36.7
443.101	33
443.537	31.4
443.973	32.4
444.409	34.5
444.845	26.8
445.281	31
445.717	37.6
446.153	29.1
446.589	24.3
447.025	25.7
447.461	32.6
447.896	20.1
448.332	33.8
448.768	35.2
449.203	36.5
449.639	28.9
450.074	21.1
450.509	28
450.945	38.2
451.38	34.3
451.815	36.8
452.25	32.9
452.685	28.9
453.12	30.5
453.555	23.4
453.99	34
454.425	27.3
454.86	37.8
455.295	28.8
455.73	24.4
456.164	48.1
456.599	36.7
457.033	26.2
457.468	32.6
457.902	33.8
458.337	24.8
458.771	24.5
459.205	32.6
459.64	29.4
460.074	23.1
460.508	24
460.942	28.4
461.376	26.9
461.81	24.9
462.244	28.3
462.678	36.6
463.112	28
463.545	37.1
463.979	31.7
464.413	33.3
464.846	29.6
465.28	35.6
465.713	30
466.147	31.8
466.58	24.5
467.014	34.7
467.447	32.9
467.88	40.9
468.313	38.7
468.746	40.2
469.179	29.4
469.612	28.9
470.045	23.1
470.478	30
470.911	27.7
471.344	28.7
471.777	28.5
472.209	37.4
472.642	30.4
473.074	28
473.507	30.9
473.939	38.1
474.372	40.5
474.804	25.3
475.236	33.7
475.669	33.1
476.101	40.7
476.533	39.8
476.965	38.9
477.397	22.1
477.829	33.7
478.261	42.8
478.693	23.9
479.125	34.2
479.557	27.2
479.988	39.7
480.42	35.8
480.852	40.6
481.283	32.1
481.715	38.4
482.146	38
482.577	32.7
483.009	47.5
483.44	42
483.871	48.1
484.302	36.9
484.734	34
485.165	39.6
485.596	39.3
486.027	32.9
486.457	35
486.888	37.5
487.319	27.6
487.75	25.3
488.181	30.8
488.611	33
489.042	33.4
489.472	38.1
489.903	32.7
490.333	39.5
490.764	30.9
491.194	29.5
491.624	37.3
492.054	30.2
492.484	40.9
492.915	38.4
493.345	32
493.775	32
494.204	30.6
494.634	31.2
495.064	31.3
495.494	31.8
495.924	29.6
496.353	32.8
496.783	32.2
497.212	36.9
497.642	41.6
498.071	29
498.501	36.2
498.93	34.3
499.359	34.8
499.789	30.7
500.218	33
500.647	35.1
501.076	29.1
501.505	29.3
501.934	42.4
502.363	34.8
502.792	34.4
503.221	34.3
503.649	36.7
504.078	24
504.507	22.9
504.935	35.1
505.364	32.2
505.792	28.5
506.221	30.2
506.649	28.5
507.077	20.1
507.506	32.6
507.934	34.5
508.362	21.6
508.79	22.8
509.218	37.5
509.646	26.9
510.074	37.9
510.502	30.7
510.93	28.6
511.357	33.4
511.785	34.4
512.213	25
512.64	29.6
513.068	30.4
513.496	31.7
513.923	32.8
514.35	27.4
514.778	39.6
515.205	28.5
515.632	37.9
516.059	24.5
516.486	28.6
516.914	32.1
517.341	29
517.768	29.8
518.194	21.3
518.621	39.5
519.048	27.3
519.475	35.8
519.902	17.5
520.328	26.1
520.755	32.6
521.181	27.7
521.608	25.3
522.034	32.2
522.461	28
522.887	35.3
523.313	36.8
523.739	33.5
524.165	28.5
524.592	29.6
525.018	36.8
525.444	27.1
525.869	23.7
526.295	23.6
526.721	33.3
527.147	31
527.573	40.8
527.998	31.3
528.424	33.3
528.849	28
529.275	35.2
529.7	30.1
530.126	31.4
530.551	24.4
530.976	31.7
531.402	16.3
531.827	27.5
532.252	29.2
532.677	32.9
533.102	29.2
533.527	33.4
533.952	35
534.377	29.5
534.801	24.9
535.226	28.6
535.651	31.7
536.076	23.3
536.5	25.3
536.925	23.4
537.349	30.2
537.773	22.5
538.198	28.6
538.622	43.7
539.046	35.7
539.471	38.8
539.895	30.2
540.319	36.9
540.743	31.5
541.167	24.1
541.591	31.1
542.015	38.1
542.438	33.1
542.862	26.8
543.286	29.2
543.71	31.7
544.133	31.6
544.557	39.9
544.98	29.1
545.404	29.6
545.827	28.9
546.25	33
546.674	38.8
547.097	27.8
547.52	30.1
547.943	22
548.366	36.3
548.789	31
549.212	40.3
549.635	28.8
550.058	36.2
550.481	47.8
550.903	31.1
551.326	35.5
551.749	29.8
552.171	35.5
552.594	41.4
553.016	36.2
553.438	36.1
553.861	33
554.283	34.5
554.705	26.6
555.128	36
555.55	41.6
555.972	33.2
556.394	30.3
556.816	29.8
557.238	21.3
557.659	31.1
558.081	33.2
558.503	41.2
558.925	43.2
559.346	29.8
559.768	32.7
560.189	27.7
560.611	30.9
561.032	27.5
561.454	25.7
561.875	40
562.296	28.2
562.718	27.5
563.139	41.5
563.56	32.3
563.981	28.7
564.402	34.6
564.823	32.6
565.244	24.6
565.664	27.8
566.085	35
566.506	24.5
566.927	24.5
567.347	35.2
567.768	39.6
568.188	45.7
568.609	28.8
569.029	25.2
569.449	31.3
569.87	25.8
570.29	21
570.71	28.4
571.13	25.9
571.55	28.6
571.97	30.4
572.39	26.9
572.81	26.6
573.23	30.9
573.65	32.9
574.069	25.8
574.489	24.3
574.909	24.2
575.328	23.4
575.748	34.7
576.167	27.3
576.587	31.1
577.006	25.6
577.425	32.2
577.844	27.6
578.264	28.9
578.683	32
579.102	21.2
579.521	26.3
579.94	27
580.359	26.9
580.778	24
581.196	29.4
581.615	20.2
582.034	31.1
582.452	29.5
582.871	23.3
583.29	30.8
583.708	36.7
584.126	35.4
584.545	32.5
584.963	36.4
585.381	30.6
585.8	28.7
586.218	36.4
586.636	21.7
587.054	19.8
587.472	22.3
587.89	24.6
588.308	37.3
588.725	17.6
589.143	26.1
589.561	21.9
589.979	22.5
590.396	24.2
590.814	30.8
591.231	34.5
591.649	35.9
592.066	30.8
592.483	16.7
592.901	28
593.318	28.2
593.735	19.3
594.152	31.4
594.569	26.2
594.986	26.3
595.403	24.9
595.82	28.7
596.237	22.1
596.654	29.4
597.07	23.2
597.487	26.9
597.904	25.7
598.32	38.8
598.737	33
599.153	18.8
599.57	31.7
599.986	26.5
600.402	22.5
600.818	26.6
601.235	23.9
601.651	20.5
602.067	31.5
602.483	26.4
602.899	34.2
603.315	24.3
603.73	28.1
604.146	27.4
604.562	22.5
604.978	20.5
605.393	24
605.809	25.7
606.224	29.5
606.64	22.7
607.055	40.9
607.471	31.4
607.886	31.9
608.301	18.6
608.716	38
609.131	27.9
609.547	25.6
609.962	30.6
610.377	35.2
610.791	29
611.206	27.7
611.621	27.6
612.036	23.6
612.451	29.6
612.865	27.6
613.28	42.6
613.694	29.9
614.109	27.6
614.523	36.4
614.938	35.6
615.352	26.8
615.766	27.9
616.18	42.9
616.595	37.6
617.009	42.4
617.423	29.9
617.837	33.3
618.251	36.2
618.664	41.2
619.078	36.2
619.492	37.1
619.906	46.4
620.319	29.4
620.733	37.4
621.146	37.2
621.56	37.4
621.973	33.3
622.387	35.6
622.8	41.4
623.213	42.5
623.627	40.5
624.04	37.1
624.453	56.1
624.866	41
625.279	48.9
625.692	56.7
626.105	67
626.518	64.4
626.93	55
627.343	67.5
627.756	64.9
628.168	63.8
628.581	68.4
628.993	62.5
629.406	85.8
629.818	65.6
630.231	69.2
630.643	84.5
631.055	76.8
631.467	72
631.879	86.5
632.291	81.4
632.703	93.1
633.115	98.9
633.527	100
633.939	113.2
634.351	111.3
634.763	103.8
635.174	121.6
635.586	120.9
635.997	113.1
636.409	127.4
636.82	136
637.232	139.1
637.643	130.3
638.054	139.6
638.466	132.9
638.877	128.2
639.288	131.9
639.699	132.3
640.11	129.4
640.521	142.3
640.932	134.9
641.343	127.4
641.753	140.5
642.164	132.3
642.575	130.3
642.986	145.1
643.396	147.7
643.807	151.2
644.217	153.3
644.627	143.6
645.038	156.6
645.448	158.5
645.858	169.8
646.269	155.4
646.679	156.2
647.089	166
647.499	162.9
647.909	165.3
648.319	155.6
648.728	167.2
649.138	162.5
649.548	157.4
649.958	160.5
650.367	157.9
650.777	168.4
651.186	162.5
651.596	164.9
652.005	162.6
652.415	165.9
652.824	163
653.233	157
653.642	162.7
654.052	157.5
654.461	158.2
654.87	151.9
655.279	138.8
655.688	139.3
656.096	143.6
656.505	137.9
656.914	138.1
657.323	138.9
657.731	135.3
658.14	143.2
658.548	130.3
658.957	124.6
659.365	115.2
659.774	124.2
660.182	104.9
660.59	120.4
660.998	110.4
661.407	108.3
661.815	113.7
662.223	101.5
662.631	112.8
663.039	110.2
663.446	98.6
663.854	102.1
664.262	107.7
664.67	95.8
665.077	90.9
665.485	93.8
665.892	97
666.3	84.6
666.707	73
667.115	84.9
667.522	72.4
667.929	75.9
668.337	63.4
668.744	64.7
669.151	55.7
669.558	71.7
669.965	59.1
670.372	58.1
670.779	51.2
671.185	57
671.592	55
671.999	44.6
672.405	46.2
672.812	45.8
673.219	51.2
673.625	58
674.032	50.8
674.438	44.7
674.844	39.5
675.25	49.7
675.657	45.5
676.063	46.6
676.469	35.2
676.875	39.3
677.281	39.3
677.687	45.4
678.093	38
678.499	27.3
678.904	27.3
679.31	37.2
679.716	38.6
680.121	16.7
680.527	30.1
680.932	33.1
681.338	31.1
681.743	22.7
682.148	29
682.554	30.6
682.959	32.5
683.364	31.7
683.769	40.2
684.174	30.7
684.579	33.9
684.984	38.7
685.389	45.4
685.794	28.1
686.199	36.3
686.603	31
687.008	33.4
687.413	33.2
687.817	24.2
688.222	38.9
688.626	37.7
689.03	37.5
689.435	27.8
689.839	41.2
690.243	29.4
690.647	29.1
691.051	30.9
691.456	23.1
691.859	34.4
692.263	20.6
692.667	34.5
693.071	25.7
693.475	28.3
693.879	33.9
694.282	27.6
694.686	24.4
695.089	30.6
695.493	28.2
695.896	35
696.3	22.2
696.703	31.3
697.106	32.9
697.509	28.3
697.913	27.9
698.316	25.3
698.719	29
699.122	26
699.525	13.7
699.928	30.7
700.33	34.4
700.733	26.8
701.136	26.5
701.539	24.4
701.941	27.3
702.344	26.1
702.746	24.9
703.149	28.6
703.551	21.6
703.953	25.9
704.356	30.7
704.758	11.1
705.16	19.5
705.562	37.7
705.964	39.3
706.366	35.6
706.768	23.5
707.17	18.8
707.572	27
707.973	22.2
708.375	29
708.777	25
709.178	35.7
709.58	26.7
709.981	17.8
710.383	31.8
710.784	35.8
711.186	22.9
711.587	29.3
711.988	31.6
712.389	25.7
712.79	39.6
713.191	37.7
713.592	31
713.993	24.5
714.394	33.3
714.795	32
715.196	25.9
715.596	17.5
715.997	23.5
716.398	24.6
716.798	24.8
717.199	23.2
717.599	25.8
718	26.9
718.4	29.7
718.8	23.6
719.2	28.6
719.6	27.1
720.001	24
720.401	27
720.801	28.6
721.201	30.7
721.6	23.6
722	37.8
722.4	17
722.8	30.7
723.199	21.3
723.599	20.7
723.998	24.9
724.398	34.3
724.797	24.4
725.197	20.3
725.596	18.1
725.995	28.6
726.394	33.7
726.794	25.6
727.193	26
727.592	28.6
727.991	27.5
728.39	26.8
728.789	30.9
729.187	25.6
729.586	24.7
729.985	29
730.383	36.2
730.782	30.8
731.181	28.2
731.579	31.6
731.977	36.8
732.376	27
732.774	31.4
733.172	36.9
733.571	35.1
733.969	25.6
734.367	31.2
734.765	32.7
735.163	30.5
735.561	32.8
735.959	39.3
736.356	35.3
736.754	33.5
737.152	36.1
737.55	35.1
737.947	43.5
738.345	43.1
738.742	41.6
739.14	38.4
739.537	34.7
739.934	48.8
740.331	50.2
740.729	49.7
741.126	43.5
741.523	41.5
741.92	40.4
742.317	42
742.714	49.2
743.111	37.9
743.507	43.2
743.904	49.8
744.301	44
744.697	34.1
745.094	48.5
745.491	47
745.887	44.5
746.283	47.7
746.68	47.3
747.076	44.3
747.472	59.6
747.869	53.8
748.265	51.5
748.661	53.5
749.057	52.6
749.453	50.4
749.849	56.1
750.244	50.3
750.64	54.6
751.036	59.2
751.432	62.2
751.827	56.7
752.223	60
752.618	62.3
753.014	46.5
753.409	56.7
753.805	54.9
754.2	52.8
754.595	59.3
754.99	63
755.385	54.7
755.78	65.4
756.175	56.7
756.57	54.2
756.965	64
757.36	54.7
757.755	63.3
758.15	65.8
758.544	65.3
758.939	83.6
759.334	93.8
759.728	85
760.122	93.6
760.517	95.6
760.911	89.1
761.306	91.5
761.7	89.2
762.094	83.4
762.488	80
762.882	77.8
763.276	73.3
763.67	67.9
764.064	76.4
764.458	76
764.852	84.4
765.245	85.6
765.639	92
766.033	85.2
766.426	112.5
766.82	103.1
767.213	99.6
767.606	106.6
768	98.9
768.393	85.4
768.786	93
769.179	110.3
769.572	95.3
769.966	87.6
770.358	90.1
770.751	87.1
771.144	85.9
771.537	90.2
771.93	91.7
772.323	85
772.715	83.6
773.108	75.7
773.5	64.6
773.893	67.5
774.285	73.9
774.678	69
775.07	70.9
775.462	66.8
775.854	59.6
776.247	51.5
776.639	62.8
777.031	58.6
777.423	53.1
777.815	55.2
778.207	76.2
778.598	52.9
778.99	62.4
779.382	69.7
779.773	97.6
780.165	103.5
780.557	120.3
780.948	124.3
781.339	138.2
781.731	133.5
782.122	141.4
782.513	137.7
782.905	140.4
783.296	140.2
783.687	140.4
784.078	117.4
784.469	117.5
784.86	104.5
785.251	113.1
785.641	107
786.032	101.5
786.423	105.2
786.813	110.8
787.204	111.5
787.594	102.4
787.985	109.7
788.375	98.7
788.766	87
789.156	76.7
789.546	72.2
789.936	70.8
790.326	79.7
790.717	70.9
791.107	77.4
791.497	64.6
791.886	58.7
792.276	66.6
792.666	49.6
793.056	56.6
793.445	53.8
793.835	54.1
794.225	51.9
794.614	62
795.004	46.1
795.393	54.5
795.782	48.4
796.172	59.1
796.561	65.1
796.95	59.8
797.339	60.4
797.728	64
798.117	53.3
798.506	57.1
798.895	46.2
799.284	51.3
799.673	55.6
800.061	46.9
800.45	52.9
800.839	44.1
801.227	47.4
801.616	41.2
802.004	38.6
802.392	46.5
802.781	43.6
803.169	42.9
803.557	35
803.945	40.2
804.333	39.5
804.721	41.2
805.109	42.6
805.497	36.4
805.885	37.7
806.273	47
806.661	38.3
807.048	43.9
807.436	27.4
807.824	27.5
808.211	31.9
808.599	26.8
808.986	36.1
809.373	25.5
809.761	35.2
810.148	38.3
810.535	39.9
810.922	27.9
811.309	30.5
811.696	34.4
812.083	37.4
812.47	39.8
812.857	31.8
813.244	29
813.631	29.4
814.017	31.2
814.404	40.7
814.791	30.8
815.177	27.3
815.564	41.7
815.95	35.6
816.336	37.5
816.723	29.1
817.109	36.5
817.495	30
817.881	31.1
818.267	29.1
818.653	24.3
819.039	33.8
819.425	29.5
819.811	25.6
820.197	32.1
820.582	28.7
820.968	25.3
821.354	28.4
821.739	26.1
822.125	31.9
822.51	30.8
822.895	31.9
823.281	31.5
823.666	34.1
824.051	34
824.436	30.8
824.822	32.6
825.207	24.7
825.592	25.1
825.976	33.2
826.361	28.9
826.746	29.3
827.131	28
827.516	29.3
827.9	34.1
828.285	24.2
828.669	28.7
829.054	27.7
829.438	32.5
829.823	30.8
830.207	33.2
830.591	36.9
830.975	28.9
831.36	27.5
831.744	33.4
832.128	22.6
832.512	27.2
832.895	34.6
833.279	21.9
833.663	30.2
834.047	26
834.431	26.9
834.814	25.8
835.198	15.5
835.581	29.3
835.965	33.4
836.348	30.7
836.731	26.3
837.115	37.3
837.498	36.8
837.881	35.8
838.264	20
838.647	29.7
839.03	30.5
839.413	31.9
839.796	33.3
840.179	25.7
840.562	31.1
840.944	31.5
841.327	31.3
841.71	31.4
842.092	32.1
842.475	28.9
842.857	29.2
843.24	32.3
843.622	32.1
844.004	33.4
844.386	30.4
844.769	24.1
845.151	31.5
845.533	40.3
845.915	26.5
846.297	39.3
846.678	32.5
847.06	29.1
847.442	31.5
847.824	34.3
848.205	36.3
848.587	21.5
848.968	31
849.35	18.3
849.731	26.2
850.113	24.6
850.494	28.1
850.875	23.8
851.256	29.9
851.638	17.8
852.019	30.3
852.4	26.2
852.781	23.6
853.161	33.6
853.542	26
853.923	25.7
854.304	29
854.685	34.1
855.065	32
855.446	30.4
855.826	30.3
856.207	30.2
856.587	38.1
856.967	26.1
857.348	30.9
857.728	36.5
858.108	31.1
858.488	29.7
858.868	31.9
859.248	36.2
859.628	31.5
860.008	26.8
860.388	29.5
860.768	33.3
861.147	26.1
861.527	37.9
861.907	33.5
862.286	28.2
862.666	39.6
863.045	37.5
863.424	31.6
863.804	24.1
864.183	24.2
864.562	31.7
864.941	34.4
865.32	29.9
865.699	26.2
866.078	32.9
866.457	28.2
866.836	28.1
867.215	34.3
867.594	32.1
867.972	24.7
868.351	30.2
868.729	22.6
869.108	31.4
869.486	33.3
869.865	30.8
870.243	34
870.621	25.6
871	34.7
871.378	38.5
871.756	27.8
872.134	30.9
872.512	39.1
872.89	34.3
873.268	45
873.646	37.5
874.023	18.3
874.401	25.9
874.779	36.1
875.156	30
875.534	34.2
875.911	30.6
876.289	30.5
876.666	14.3
877.043	34.2
877.421	28.6
877.798	22.2
878.175	35.1
878.552	22.3
878.929	27.3
879.306	23.3
879.683	29.4
880.06	26.1
880.437	33.3
880.813	39.9
881.19	33.8
881.567	39
881.943	27.8
882.32	36.5
882.696	34.1
883.073	31.8
883.449	28
883.825	37.5
884.202	27.7
884.578	29
884.954	36.3
885.33	30.6
885.706	31.9
886.082	22.5
886.458	35.9
886.834	36.1
887.209	33.5
887.585	26.5
887.961	27.7
888.336	35.3
888.712	33.1
889.087	22.1
889.463	34.6
889.838	30.9
890.213	25.5
890.589	28.7
890.964	23.5
891.339	43.6
891.714	34.3
892.089	26.9
892.464	30.2
892.839	31.9
893.214	28.2
893.589	33.1
893.963	34.8
894.338	25.7
894.713	29.7
895.087	40.6
895.462	35.7
895.836	24
896.211	30.1
896.585	35.6
896.959	39.1
897.334	35.9
897.708	32.5
898.082	36.2
898.456	25.3
898.83	36.7
899.204	43.5
899.578	27.2
899.952	32.3
900.325	30.3
900.699	23.6
901.073	29
901.446	32.1
901.82	31.9
902.193	26.6
902.567	34.2
902.94	32
903.313	37.9
903.687	28.4
904.06	29.9
904.433	37.9
904.806	39.3
905.179	35.4
905.552	43.1
905.925	36.4
906.298	46.7
906.671	42
907.043	35
907.416	26.5
907.789	27.5
908.161	29.4
908.534	41.5
908.906	38.1
909.279	32.9
909.651	38.5
910.023	23.6
910.396	30
910.768	40.5
911.14	27.8
911.512	40.4
911.884	41
912.256	29.4
912.628	35.3
912.999	40
913.371	30.1
913.743	46.9
914.115	45.2
914.486	38.2
914.858	33.9
915.229	33.2
915.601	33
915.972	29.4
916.343	37.8
916.715	45.4
917.086	32.2
917.457	40.2
917.828	32.6
918.199	50.7
918.57	36.4
918.941	25.1
919.312	33.9
919.682	39.5
920.053	32.7
920.424	36.1
920.794	32.4
921.165	27.6
921.536	39.5
921.906	44.8
922.276	32.5
922.647	27.4
923.017	34.3
923.387	32.5
923.757	34.3
924.127	43.7
924.497	44.2
924.867	31.1
925.237	40.4
925.607	32.1
925.977	26.6
926.347	30.2
926.716	40.3
927.086	36.5
927.456	40.3
927.825	37.7
928.195	30.8
928.564	40.1
928.933	31.3
929.303	41
929.672	35.6
930.041	40.7
930.41	38.3
930.779	26
931.148	44.4
931.517	35.2
931.886	33.5
932.255	27.4
932.624	30.3
932.993	32.3
933.361	27.9
933.73	46.6
934.098	40.8
934.467	38
934.835	40.5
935.204	39.9
935.572	40.6
935.94	37.6
936.308	36.3
936.677	34.6
937.045	27.4
937.413	39.5
937.781	37.8
938.149	41.8
938.516	43.5
938.884	44.8
939.252	40
939.62	42.2
939.987	37.6
940.355	35.3
940.722	34.5
941.09	35.9
941.457	39.6
941.825	47.6
942.192	36.5
942.559	39.2
942.926	37.3
943.293	41
943.66	34.7
944.027	34.3
944.394	35.7
944.761	35.3
945.128	39.6
945.495	43.2
945.861	29.1
946.228	50
946.595	34.1
946.961	44.2
947.328	42.4
947.694	42.1
948.06	35.7
948.427	33.7
948.793	31.5
949.159	28.1
949.525	38
949.891	34.2
950.257	29.6
950.623	36.2
950.989	32.3
951.355	40.3
951.721	42
952.087	29.9
952.452	40.8
952.818	34.5
953.183	38.5
953.549	37
953.914	39.9
954.28	35.5
954.645	31.8
955.01	33.5
955.375	30.3
955.741	29.4
956.106	42.3
956.471	27.3
956.836	28.7
957.201	25.3
957.566	33.1
957.93	49.1
958.295	29.5
958.66	36.3
959.024	31.4
959.389	33.2
959.753	46.1
960.118	32.8
960.482	23.4
960.847	31.6
961.211	28.5
961.575	29.1
961.939	31.6
962.303	30.6
962.667	28.8
963.031	31.2
963.395	41.1
963.759	33.5
964.123	27.6
964.487	31.9
964.851	26.2
965.214	34.9
965.578	35.4
965.941	31.2
966.305	35.9
966.668	40.9
967.032	33.8
967.395	28.9
967.758	35.5
968.121	30.3
968.484	42.8
968.847	29.6
969.21	26.6
969.573	35.9
969.936	20.4
970.299	24.8
970.662	36.2
971.025	29.2
971.387	35.3
971.75	32.7
972.112	30.3
972.475	32.9
972.837	33.6
973.2	35.1
973.562	34
973.924	36.5
974.286	30.2
974.649	31.1
975.011	33
975.373	33.3
975.735	26
976.097	30.7
976.458	37.2
976.82	30.3
977.182	36.6
977.544	30.8
977.905	29.1
978.267	33.2
978.628	34.9
978.99	22.4
979.351	28.9
979.712	40.7
980.074	24.1
980.435	34.1
980.796	35.1
981.157	30.6
981.518	34.4
981.879	28.6
982.24	28.7
982.601	33.6
982.962	31.4
983.323	25.5
983.683	33.1
984.044	34.4
984.404	26.8
984.765	34.3
985.125	29.9
985.486	29.4
985.846	20.4
986.206	27
986.567	24.9
986.927	27.1
987.287	36.8
987.647	19.2
988.007	30.4
988.367	36.7
988.727	27.4
989.087	29.7
989.446	34.7
989.806	39.5
990.166	34.1
990.525	34.5
990.885	17.9
991.244	26.3
991.604	33.3
991.963	28.3
992.322	22.7
992.682	26
993.041	25.6
993.4	30.6
993.759	29.9
994.118	32.7
994.477	26.2
994.836	38.7
995.195	39.4
995.553	31.8
995.912	31.2
996.271	35.7
996.629	26
996.988	36.6
997.346	36.8
997.705	30.5
998.063	36.7
998.422	26
998.78	31.4
999.138	23.3
999.496	31.9
999.854	28.6
1000.212	24.5
1000.57	31.7
1000.928	32.1
1001.286	25.8
1001.644	34.5
1002.001	33.2
1002.359	34.4
1002.717	28.2
1003.074	24.5
1003.432	32.2
1003.789	23.9
1004.147	32.7
1004.504	37
1004.861	38.1
1005.218	22.6
1005.576	28.9
1005.933	32.5
1006.29	31.9
1006.647	31.4
1007.004	28.1
1007.36	29.2
1007.717	32
1008.074	46.1
1008.431	37.7
1008.787	21.5
1009.144	26.1
1009.5	28.3
1009.857	28.8
1010.213	26.6
1010.569	32.4
1010.926	31.5
1011.282	32.3
1011.638	31.6
1011.994	29.3
1012.35	28.1
1012.706	30.7
1013.062	25.1
1013.418	29.9
1013.774	27.9
1014.13	31.9
1014.485	24.3
1014.841	35.7
1015.197	27.6
1015.552	24.9
1015.907	30.2
1016.263	31.1
1016.618	25.2
1016.974	34
1017.329	24.2
1017.684	27.4
1018.039	31
1018.394	24.7
1018.749	10.6
1019.104	14.7
1019.459	27.6
1019.814	30.6
1020.168	24.6
1020.523	27.5
1020.878	37.6
1021.232	21.4
1021.587	39.3
1021.941	28.7
1022.296	32.2
1022.65	25.9
1023.004	33.7
1023.359	27.6
1023.713	29.8
1024.067	18.2
1024.421	29.4
1024.775	31.1
1025.129	33
1025.483	30.4
1025.837	30.2
1026.19	32.3
1026.544	19.7
1026.898	30.7
1027.251	22.5
1027.605	28.7
1027.958	18.7
1028.312	24.4
1028.665	23
1029.018	27
1029.372	28.8
1029.725	29.3
1030.078	29.1
1030.431	30.4
1030.784	32
1031.137	30.3
1031.49	30.8
1031.843	36.3
1032.195	36
1032.548	22.3
1032.901	29.9
1033.253	36.7
1033.606	38.9
1033.958	36.9
1034.311	31.1
1034.663	23.6
1035.016	28.4
1035.368	25.7
1035.72	20.5
1036.072	22.5
1036.424	34.3
1036.776	34.9
1037.128	24.4
1037.48	22.6
