Data from 0.15bar_Subt2__0__18-02-09-764.txt Node

Date: Thu Jan 06 18:02:09 CET 2022
User: fsatto
Spectrometer: OFX01956
Trigger mode: 0
Integration Time (sec): 2.000000E-3
Scans to average: 10
Nonlinearity correction enabled: false
Boxcar width: 0
Storing dark spectrum: false
XAxis mode: Wavelengths
Number of Pixels in Spectrum: 2136
>>>>>Begin Spectral Data<<<<<
158.236	21.2
158.705	13.5
159.174	20.6
159.643	21.2
160.112	19.6
160.582	23.6
161.051	26.3
161.52	24.3
161.988	27
162.457	27.3
162.926	24.7
163.395	26.5
163.864	19.2
164.332	21.7
164.801	16.5
165.269	25.1
165.738	15.7
166.206	13.9
166.675	27.7
167.143	24.1
167.612	24.7
168.08	30.8
168.548	22.9
169.016	26.8
169.484	24.6
169.952	27.1
170.42	19.2
170.888	15.1
171.356	22.3
171.824	21.1
172.292	20.1
172.759	28
173.227	27
173.695	29.4
174.162	27.8
174.63	30.6
175.097	26.3
175.565	19.5
176.032	20.7
176.499	17.2
176.967	25.5
177.434	20.1
177.901	24.7
178.368	30
178.835	18.7
179.302	25.4
179.769	24
180.236	24.3
180.703	21.7
181.17	30.3
181.637	20.7
182.103	29.5
182.57	20.9
183.036	17.6
183.503	27
183.97	24.4
184.436	22.1
184.902	23.3
185.369	14.8
185.835	26.5
186.301	19.8
186.767	16.2
187.234	26
187.7	22.1
188.166	15
188.632	19.1
189.098	26.2
189.563	21
190.029	18.3
190.495	28.7
190.961	31.5
191.426	26.6
191.892	25.4
192.358	23
192.823	22.5
193.289	28.9
193.754	26.9
194.219	19.7
194.685	26.3
195.15	28.2
195.615	16.1
196.08	31.6
196.545	22.7
197.01	21.8
197.475	23.6
197.94	18.8
198.405	26.7
198.87	13.5
199.335	27.4
199.8	22.1
200.264	108.1
200.729	110.6
201.193	101.7
201.658	109.7
202.122	126
202.587	127.8
203.051	102.8
203.516	128.8
203.98	119.8
204.444	119.8
204.908	119.4
205.372	132.9
205.836	148.9
206.3	150.5
206.764	167.7
207.228	164.3
207.692	161.2
208.156	187
208.62	208
209.083	231.6
209.547	243.4
210.011	302
210.474	330.8
210.938	367.9
211.401	410.2
211.864	490.3
212.328	550.9
212.791	642.5
213.254	755.4
213.717	867.3
214.181	1024.8
214.644	1231.2
215.107	1403.7
215.57	1544.3
216.033	1836.2
216.495	2274.3
216.958	2648.1
217.421	2882.8
217.884	3103.3
218.346	3438
218.809	3862.1
219.272	4297.6
219.734	4744.5
220.196	5071.6
220.659	5543.9
221.121	5964
221.584	6417.4
222.046	7195.9
222.508	7746.5
222.97	8239.9
223.432	8760.5
223.894	9467.1
224.356	10575.8
224.818	11481.1
225.28	12136.6
225.742	12956.8
226.204	14761.9
226.665	16141.3
227.127	17202.9
227.589	18331.4
228.05	19638.6
228.512	20626.4
228.973	21590.3
229.435	21291.1
229.896	20811.4
230.357	21725.3
230.818	23510.5
231.28	24096
231.741	24138.9
232.202	23795.6
232.663	22966.3
233.124	23325.2
233.585	24992.5
234.046	26641.8
234.507	26204.1
234.967	23785.8
235.428	22725.8
235.889	23350.2
236.349	25472
236.81	27863.5
237.271	28622.9
237.731	27297.9
238.191	25531
238.652	25261.1
239.112	27297.4
239.572	30450.2
240.033	31760.9
240.493	28567.1
240.953	24716.5
241.413	23145.9
241.873	24411.2
242.333	26167.9
242.793	25909.1
243.253	24261.9
243.712	23438.1
244.172	23148.8
244.632	23496.1
245.092	25093.4
245.551	25911.9
246.011	25524.1
246.47	25013.6
246.93	26173.4
247.389	29679.9
247.848	32899.3
248.308	33997.6
248.767	34146.2
249.226	33435
249.685	33712.5
250.144	34897.1
250.603	37699.3
251.062	39789.5
251.521	38855
251.98	36477.9
252.439	34445.5
252.897	33580.8
253.356	35120.2
253.815	37094.3
254.273	38297
254.732	38037.2
255.19	33790.6
255.649	29300.4
256.107	27569.7
256.566	28218.8
257.024	30810.3
257.482	31646.8
257.94	30231.1
258.398	30733.9
258.856	30808.4
259.315	30527.6
259.772	30640.6
260.23	30752.8
260.688	30548
261.146	29095.2
261.604	27867.4
262.062	27703.6
262.519	28597
262.977	29193.7
263.434	27866.8
263.892	26990.8
264.349	27263.5
264.807	27589.2
265.264	26560.8
265.721	25409.8
266.179	24848.3
266.636	23648
267.093	22358.7
267.55	22177.6
268.007	22875.6
268.464	23042.8
268.921	22414.4
269.378	21040.9
269.835	20569.8
270.291	20689.8
270.748	20611.9
271.205	20484.9
271.661	19794.4
272.118	19001.2
272.574	18774.5
273.031	19275.3
273.487	19243.8
273.944	18927
274.4	18883.6
274.856	18853.1
275.312	17856.1
275.768	17445.1
276.225	17330.7
276.681	17420
277.137	16818.6
277.593	15943.7
278.048	15179.4
278.504	14807.8
278.96	14184
279.416	13340.9
279.871	12505.8
280.327	11768.9
280.783	11472.6
281.238	11312.6
281.694	10759.2
282.149	10219.5
282.604	10113.9
283.06	10010.6
283.515	9587.7
283.97	9301.2
284.425	8835.3
284.88	8424.6
285.335	8024.7
285.79	7428
286.245	6899.2
286.7	6921.9
287.155	7257.5
287.61	7200.5
288.064	7100
288.519	7444.2
288.974	7445.4
289.428	7236.2
289.883	7253.2
290.337	7402.9
290.792	7572.4
291.246	7828.2
291.7	7770.9
292.155	7752.3
292.609	7684.4
293.063	7441.9
293.517	7407.2
293.971	7544.2
294.425	7591.7
294.879	7602.1
295.333	7372.4
295.787	7074.1
296.241	6907.7
296.694	6911.9
297.148	7086.3
297.602	7081
298.055	6843
298.509	6488.4
298.962	6019.3
299.416	5818
299.869	5901.2
300.322	5822.9
300.775	5682.7
301.229	5461.7
301.682	5242.7
302.135	5128.9
302.588	4934.4
303.041	4755
303.494	4588.3
303.947	4324.4
304.4	4160.8
304.852	3943.4
305.305	3750.3
305.758	3498.6
306.21	3240.4
306.663	3061.9
307.115	2986.5
307.568	3012.3
308.02	2985.8
308.473	2871.9
308.925	2692.3
309.377	2538.5
309.829	2489.8
310.282	2476
310.734	2398.5
311.186	2302
311.638	2153.4
312.09	2062.6
312.542	1936.3
312.993	1802
313.445	1688.4
313.897	1643.7
314.349	1570.5
314.8	1497.4
315.252	1440
315.703	1408
316.155	1353.3
316.606	1335.3
317.058	1282.6
317.509	1262.2
317.96	1240.1
318.411	1158.9
318.863	1136.3
319.314	1083.4
319.765	1026
320.216	977.3
320.667	892.5
321.117	854.1
321.568	840.4
322.019	831.6
322.47	782.9
322.921	740.3
323.371	698.4
323.822	657.2
324.272	620.7
324.723	579.6
325.173	542.1
325.623	504.5
326.074	473.8
326.524	456.9
326.974	502.6
327.424	729.1
327.874	887.1
328.325	677.9
328.775	483.6
329.224	435
329.674	416.9
330.124	395.2
330.574	398.9
331.024	347.9
331.473	330.8
331.923	306.9
332.373	282.1
332.822	265.8
333.272	243.1
333.721	232.1
334.17	215.3
334.62	195.9
335.069	180.8
335.518	169.2
335.967	173.6
336.416	157.1
336.865	152.4
337.314	143.8
337.763	137.6
338.212	114.3
338.661	108.8
339.11	99.6
339.558	93.3
340.007	88.7
340.456	92.7
340.904	89.7
341.353	88.2
341.801	84.2
342.25	89.2
342.698	82.4
343.146	72.6
343.595	77.4
344.043	56.5
344.491	59
344.939	57.8
345.387	60.2
345.835	55.8
346.283	58.9
346.731	51.3
347.179	59
347.626	42.5
348.074	43
348.522	44.4
348.969	51.5
349.417	51.7
349.865	43.3
350.312	45.7
350.759	43
351.207	35.8
351.654	38.4
352.101	40.8
352.548	42.6
352.996	33.9
353.443	37.6
353.89	32.5
354.337	24.4
354.784	30.3
355.231	27.9
355.677	21.8
356.124	32.6
356.571	31.8
357.018	34.3
357.464	24.1
357.911	30.9
358.357	33
358.804	39
359.25	42.3
359.696	28.9
360.143	33.3
360.589	23.8
361.035	25.1
361.481	33.1
361.927	24.3
362.373	21
362.819	23.3
363.265	29
363.711	29.2
364.157	15.6
364.603	22.2
365.048	31.9
365.494	34.8
365.94	24.2
366.385	31.1
366.831	30.6
367.276	29.2
367.722	17.9
368.167	31.4
368.612	29.7
369.057	30
369.503	24.8
369.948	26.9
370.393	30.7
370.838	29.3
371.283	25.9
371.728	31.7
372.173	31.5
372.617	28.8
373.062	23.6
373.507	25.8
373.951	36.3
374.396	26.5
374.841	24.9
375.285	28.2
375.729	28.6
376.174	34.3
376.618	18.5
377.062	26.7
377.507	26.8
377.951	29.9
378.395	24.2
378.839	12.4
379.283	28.5
379.727	26.4
380.171	31.1
380.615	27.7
381.059	29.1
381.502	27.4
381.946	22.2
382.39	25.2
382.833	21.1
383.277	25.2
383.72	31.7
384.164	26.3
384.607	32.9
385.05	18.7
385.494	30.2
385.937	25.2
386.38	28.3
386.823	24.5
387.266	24.3
387.709	25.4
388.152	31
388.595	26.3
389.038	19.6
389.481	20.2
389.923	28.2
390.366	22
390.809	20.2
391.251	39.5
391.694	29.1
392.136	20.8
392.579	19.2
393.021	30.4
393.463	25.8
393.906	30.7
394.348	23.1
394.79	28.8
395.232	27.8
395.674	24.9
396.116	28
396.558	21.8
397	22.3
397.442	22.6
397.884	23
398.325	21
398.767	29.6
399.209	24.6
399.65	23.7
400.092	25.4
400.533	22.3
400.974	33.3
401.416	34.6
401.857	17.5
402.298	33.8
402.74	23.2
403.181	31.8
403.622	23.4
404.063	32.7
404.504	16.2
404.945	27.6
405.386	21.3
405.826	31.5
406.267	24.2
406.708	31.9
407.149	19.6
407.589	26.8
408.03	26.8
408.47	34.3
408.911	28.2
409.351	28.2
409.791	29
410.232	22.2
410.672	23.9
411.112	21.5
411.552	25.2
411.992	26
412.432	17.6
412.872	27.7
413.312	30.1
413.752	30.7
414.192	12.5
414.632	29
415.071	17.7
415.511	20.9
415.951	26.5
416.39	32.7
416.83	24.7
417.269	28.6
417.708	28.4
418.148	24.2
418.587	26.5
419.026	29.9
419.465	31.3
419.904	28.7
420.344	35.6
420.783	25.6
421.221	32.1
421.66	28.3
422.099	18.6
422.538	25.5
422.977	23
423.415	21.5
423.854	34.7
424.293	27.9
424.731	23.9
425.17	27.2
425.608	18.9
426.046	37.1
426.485	26.6
426.923	14.4
427.361	34.6
427.799	28.3
428.237	27.7
428.675	32.2
429.113	20.7
429.551	23.8
429.989	27
430.427	24
430.865	36
431.303	26.8
431.74	40.4
432.178	31.6
432.615	16.7
433.053	26.1
433.49	23.1
433.928	27.4
434.365	23
434.802	21.9
435.24	29.3
435.677	28
436.114	38.1
436.551	22.6
436.988	31.1
437.425	24.3
437.862	23.5
438.299	28.6
438.736	27.3
439.172	14.3
439.609	27.5
440.046	23.5
440.482	30.8
440.919	28.1
441.355	29.9
441.792	18.2
442.228	28.3
442.665	30.2
443.101	26.6
443.537	28.1
443.973	31.2
444.409	22.6
444.845	23.4
445.281	23
445.717	31.8
446.153	23.8
446.589	25.6
447.025	23.9
447.461	31.2
447.896	15.7
448.332	27.4
448.768	28
449.203	30.3
449.639	31.3
450.074	19.3
450.509	24
450.945	29
451.38	21.9
451.815	30.4
452.25	29.2
452.685	16.5
453.12	28.5
453.555	12.2
453.99	21.7
454.425	22.2
454.86	28.9
455.295	22.9
455.73	18.8
456.164	36.4
456.599	33.7
457.033	26.6
457.468	23.4
457.902	24.3
458.337	19.4
458.771	18.9
459.205	19.8
459.64	25
460.074	17.6
460.508	23.1
460.942	10.8
461.376	9.9
461.81	28.8
462.244	26.9
462.678	36
463.112	21.2
463.545	24.6
463.979	21.6
464.413	25.2
464.846	23
465.28	28.8
465.713	27.9
466.147	20.7
466.58	30.4
467.014	24.1
467.447	28.3
467.88	29.3
468.313	30.3
468.746	39.8
469.179	20.5
469.612	25.7
470.045	23
470.478	24.3
470.911	23.6
471.344	19
471.777	29
472.209	24
472.642	24.6
473.074	29.8
473.507	23.2
473.939	35.9
474.372	30.1
474.804	21.9
475.236	25.3
475.669	33.1
476.101	31.8
476.533	32.1
476.965	25.2
477.397	17.9
477.829	28.4
478.261	29
478.693	23.4
479.125	32
479.557	28.9
479.988	33.6
480.42	28.7
480.852	37.1
481.283	27.3
481.715	24.4
482.146	22.6
482.577	24.5
483.009	35.9
483.44	30.2
483.871	29.2
484.302	31.3
484.734	22.6
485.165	26.7
485.596	28.5
486.027	33.8
486.457	32.6
486.888	34.2
487.319	21.7
487.75	20.8
488.181	25.8
488.611	33.8
489.042	22.4
489.472	30
489.903	24.9
490.333	30.8
490.764	28.3
491.194	28.7
491.624	29.8
492.054	29.8
492.484	33.1
492.915	35
493.345	24.9
493.775	27.3
494.204	28.4
494.634	18.8
495.064	23.5
495.494	27.9
495.924	21.5
496.353	27
496.783	30.8
497.212	28.2
497.642	26
498.071	22.2
498.501	23.5
498.93	26.5
499.359	26.2
499.789	22.2
500.218	31.2
500.647	27.6
501.076	21
501.505	24.6
501.934	30.9
502.363	33.2
502.792	33.2
503.221	24.7
503.649	24.2
504.078	19.2
504.507	14.4
504.935	25.2
505.364	24.4
505.792	22.5
506.221	21.9
506.649	22.9
507.077	16.3
507.506	22.7
507.934	31.1
508.362	11.8
508.79	23.9
509.218	27.7
509.646	20.9
510.074	32.7
510.502	30.8
510.93	19.7
511.357	37.4
511.785	25.8
512.213	27.8
512.64	27.4
513.068	26.4
513.496	34.7
513.923	33.3
514.35	25.1
514.778	30.4
515.205	24.1
515.632	32.7
516.059	19.1
516.486	26.9
516.914	31.8
517.341	28.2
517.768	21.4
518.194	12.6
518.621	32.6
519.048	20.8
519.475	38.8
519.902	20.1
520.328	19.4
520.755	31.5
521.181	26.1
521.608	22.8
522.034	28.7
522.461	24.9
522.887	28.7
523.313	24.7
523.739	29.2
524.165	31.7
524.592	24.9
525.018	38.4
525.444	24.8
525.869	22.2
526.295	23.9
526.721	24.7
527.147	34.6
527.573	31.3
527.998	28.1
528.424	27.3
528.849	25.9
529.275	25.5
529.7	17.1
530.126	18.2
530.551	21.7
530.976	22.4
531.402	11.3
531.827	28.5
532.252	22
532.677	32.5
533.102	18
533.527	26.5
533.952	28.9
534.377	23.9
534.801	26
535.226	23.9
535.651	21.3
536.076	24.6
536.5	24.2
536.925	18.3
537.349	23
537.773	16
538.198	28.7
538.622	36.7
539.046	19.4
539.471	31.4
539.895	28.2
540.319	27.1
540.743	31.6
541.167	19.9
541.591	29.4
542.015	25.9
542.438	21
542.862	22.3
543.286	22.4
543.71	25.4
544.133	26.4
544.557	33
544.98	19.3
545.404	29.8
545.827	17.2
546.25	29
546.674	26.4
547.097	23.8
547.52	31.6
547.943	19.6
548.366	27.9
548.789	21.6
549.212	27.1
549.635	17.9
550.058	28.6
550.481	27.7
550.903	25.9
551.326	24.9
551.749	28.2
552.171	23.4
552.594	40.9
553.016	25
553.438	31.7
553.861	20.2
554.283	31.1
554.705	24
555.128	25.8
555.55	20.7
555.972	21.8
556.394	18.1
556.816	14.1
557.238	16
557.659	19.2
558.081	27.2
558.503	26
558.925	35.6
559.346	24.5
559.768	24
560.189	19.1
560.611	24.7
561.032	18.3
561.454	19.6
561.875	23.6
562.296	20.1
562.718	22.4
563.139	21.9
563.56	17.5
563.981	29.1
564.402	24.8
564.823	32.6
565.244	27.1
565.664	28.9
566.085	20.2
566.506	13.4
566.927	15.8
567.347	22.3
567.768	33.7
568.188	30.9
568.609	18.6
569.029	22.6
569.449	23.6
569.87	23.2
570.29	12
570.71	17.6
571.13	19.2
571.55	23.1
571.97	21.7
572.39	27.2
572.81	18.5
573.23	22.2
573.65	26
574.069	18.6
574.489	14.9
574.909	23.3
575.328	17
575.748	21.4
576.167	24.3
576.587	28.3
577.006	16.3
577.425	28.6
577.844	21.6
578.264	21.4
578.683	28.9
579.102	17
579.521	21.2
579.94	16.9
580.359	23.4
580.778	17.8
581.196	22.7
581.615	15.6
582.034	19.9
582.452	21.3
582.871	19.1
583.29	25.8
583.708	25.4
584.126	29.5
584.545	21.7
584.963	31.2
585.381	30.5
585.8	17.8
586.218	29.5
586.636	18.3
587.054	12.6
587.472	21.2
587.89	23
588.308	23.6
588.725	16.5
589.143	22.7
589.561	10.8
589.979	21.3
590.396	12.2
590.814	19.9
591.231	19.8
591.649	26.8
592.066	21.5
592.483	11.2
592.901	16.5
593.318	22.1
593.735	22.7
594.152	31.7
594.569	16
594.986	25.9
595.403	22.7
595.82	18.1
596.237	19.2
596.654	21.7
597.07	21.7
597.487	20.5
597.904	20.5
598.32	33
598.737	26.9
599.153	14.5
599.57	19.1
599.986	19.6
600.402	26
600.818	20.7
601.235	17.8
601.651	14.2
602.067	23
602.483	19.3
602.899	17.3
603.315	13.6
603.73	22.7
604.146	18.9
604.562	19.6
604.978	13.8
605.393	15
605.809	17.9
606.224	21.8
606.64	9.7
607.055	28
607.471	18.2
607.886	21.5
608.301	14.2
608.716	32.4
609.131	26.5
609.547	15
609.962	27.3
610.377	23.4
610.791	23.8
611.206	21.6
611.621	14
612.036	21.7
612.451	28.2
612.865	24.8
613.28	21.5
613.694	28.2
614.109	17.4
614.523	30.7
614.938	29.3
615.352	26
615.766	24.2
616.18	32.5
616.595	37.3
617.009	23.5
617.423	24.4
617.837	24.7
618.251	34.2
618.664	23.5
619.078	37.2
619.492	36.3
619.906	38.6
620.319	15.8
620.733	29.4
621.146	24.4
621.56	27.4
621.973	27
622.387	24.6
622.8	28.9
623.213	43
623.627	40.7
624.04	34.1
624.453	39.9
624.866	40.1
625.279	41.4
625.692	49.3
626.105	47.9
626.518	47.3
626.93	49.8
627.343	56.9
627.756	54.5
628.168	51.1
628.581	51
628.993	43.3
629.406	69.2
629.818	51.2
630.231	68.7
630.643	67
631.055	63
631.467	62.9
631.879	79.2
632.291	70
632.703	84.3
633.115	71.4
633.527	88
633.939	94.3
634.351	90.6
634.763	97.8
635.174	97.5
635.586	108.9
635.997	110.3
636.409	110.2
636.82	103.7
637.232	105.3
637.643	103.8
638.054	113.1
638.466	116.4
638.877	107
639.288	103.7
639.699	119.4
640.11	115.6
640.521	116.4
640.932	115.1
641.343	114.2
641.753	125
642.164	109.3
642.575	113.5
642.986	117.1
643.396	122.5
643.807	125.7
644.217	139.8
644.627	124.2
645.038	126
645.448	146.4
645.858	138.3
646.269	137.4
646.679	138
647.089	149.3
647.499	151.8
647.909	135.9
648.319	134.6
648.728	143
649.138	143.5
649.548	138.6
649.958	141.3
650.367	139.7
650.777	152.1
651.186	146.6
651.596	143.1
652.005	137.4
652.415	147.1
652.824	143.4
653.233	139.3
653.642	137.8
654.052	128.4
654.461	140
654.87	134.4
655.279	120
655.688	111.3
656.096	123.4
656.505	125.4
656.914	129.8
657.323	113.8
657.731	121.2
658.14	119.1
658.548	107.5
658.957	105.5
659.365	111.3
659.774	110.4
660.182	104.7
660.59	98.7
660.998	101.3
661.407	91.9
661.815	101.3
662.223	92.6
662.631	94.1
663.039	95.1
663.446	90.5
663.854	87.5
664.262	89.4
664.67	83.4
665.077	76.8
665.485	77
665.892	79.4
666.3	65
666.707	60.3
667.115	78.6
667.522	66.1
667.929	56.7
668.337	60.3
668.744	58.4
669.151	50.3
669.558	65.7
669.965	47.5
670.372	52.2
670.779	44.9
671.185	56.1
671.592	41.2
671.999	37.3
672.405	47.5
672.812	37.3
673.219	31.7
673.625	61.4
674.032	39.3
674.438	33.7
674.844	34.2
675.25	40.1
675.657	36.2
676.063	31.2
676.469	27.9
676.875	35.8
677.281	31.9
677.687	32.2
678.093	32.5
678.499	37.9
678.904	21.1
679.31	23.9
679.716	26.1
680.121	24.6
680.527	18.2
680.932	31.1
681.338	20.1
681.743	29.9
682.148	13.9
682.554	22.9
682.959	21.7
683.364	20.6
683.769	34.5
684.174	27.4
684.579	29.3
684.984	14.1
685.389	29.9
685.794	14.7
686.199	24.5
686.603	29.1
687.008	31.5
687.413	16
687.817	16.5
688.222	32.8
688.626	18.5
689.03	27.6
689.435	18.2
689.839	36.8
690.243	30.3
690.647	29.4
691.051	20.1
691.456	21.1
691.859	28.1
692.263	15.9
692.667	29.1
693.071	16.9
693.475	28.8
693.879	24
694.282	29.3
694.686	18.3
695.089	26.1
695.493	21.8
695.896	20
696.3	22.2
696.703	26.2
697.106	27.8
697.509	27.5
697.913	23.7
698.316	22
698.719	21.9
699.122	18.3
699.525	18.4
699.928	24.7
700.33	27.7
700.733	25
701.136	14.2
701.539	37.1
701.941	14.6
702.344	26.5
702.746	24.6
703.149	23.4
703.551	13.3
703.953	24.4
704.356	27.7
704.758	20
705.16	20
705.562	38.6
705.964	21.2
706.366	29.4
706.768	24.2
707.17	19.6
707.572	24.9
707.973	6
708.375	22.5
708.777	23.2
709.178	27.4
709.58	20.2
709.981	17.5
710.383	20.1
710.784	29.5
711.186	20.3
711.587	27.1
711.988	24.3
712.389	21.9
712.79	27.1
713.191	30.6
713.592	24.3
713.993	25.3
714.394	25.4
714.795	23.6
715.196	20.3
715.596	18.5
715.997	19
716.398	14.3
716.798	26.4
717.199	14.3
717.599	23
718	25.6
718.4	33
718.8	28.1
719.2	18.3
719.6	24.8
720.001	25.2
720.401	26.6
720.801	20.7
721.201	22.2
721.6	20.9
722	21.6
722.4	11.4
722.8	26.6
723.199	19.7
723.599	24.6
723.998	21.6
724.398	31.7
724.797	17.1
725.197	13.9
725.596	13.9
725.995	18.7
726.394	23.2
726.794	18.3
727.193	22.5
727.592	25.6
727.991	18.5
728.39	20.8
728.789	24.1
729.187	19.3
729.586	16.4
729.985	25.1
730.383	26.9
730.782	22.6
731.181	23.6
731.579	25.6
731.977	15.3
732.376	18.1
732.774	27.2
733.172	27.2
733.571	24.4
733.969	25
734.367	24.2
734.765	27.2
735.163	28.9
735.561	28.1
735.959	25
736.356	30.2
736.754	31.5
737.152	23.2
737.55	28.3
737.947	38.4
738.345	40
738.742	41.1
739.14	24.6
739.537	19.5
739.934	33.5
740.331	35.7
740.729	33.2
741.126	37.3
741.523	41.3
741.92	33.6
742.317	34.4
742.714	42.1
743.111	33.7
743.507	32.8
743.904	42.8
744.301	39.2
744.697	33.3
745.094	40.9
745.491	31.2
745.887	43.1
746.283	38.6
746.68	31.7
747.076	38.1
747.472	44.3
747.869	46.9
748.265	45.1
748.661	45.8
749.057	51.3
749.453	51.1
749.849	50.9
750.244	52.5
750.64	50.2
751.036	57.9
751.432	43.4
751.827	58
752.223	51.6
752.618	49
753.014	44.3
753.409	51.4
753.805	49.4
754.2	55.4
754.595	54.2
754.99	52.5
755.385	58.5
755.78	50
756.175	52.4
756.57	48.3
756.965	67.5
757.36	50.3
757.755	60.2
758.15	71.9
758.544	70.9
758.939	73.5
759.334	95.9
759.728	94
760.122	103.3
760.517	94.2
760.911	100.2
761.306	90.6
761.7	89.7
762.094	79.5
762.488	70.6
762.882	72.7
763.276	71.4
763.67	67.2
764.064	77.6
764.458	79.9
764.852	78.8
765.245	81.6
765.639	78
766.033	89.5
766.426	104.8
766.82	98.6
767.213	88.8
767.606	99
768	94.3
768.393	84.6
768.786	88.7
769.179	96.9
769.572	91.5
769.966	82.6
770.358	80.6
770.751	79.7
771.144	74
771.537	80.5
771.93	74.5
772.323	74
772.715	66
773.108	60.4
773.5	61.8
773.893	59.3
774.285	61
774.678	65.1
775.07	48.7
775.462	58.3
775.854	41
776.247	45.2
776.639	54.3
777.031	49.5
777.423	48.2
777.815	51.7
778.207	55.4
778.598	45.8
778.99	52.3
779.382	67.3
779.773	73.9
780.165	81.4
780.557	108.4
780.948	102.7
781.339	114.7
781.731	117.2
782.122	127
782.513	123.2
782.905	127.6
783.296	130.9
783.687	132.3
784.078	111.1
784.469	105.2
784.86	94.8
785.251	104.3
785.641	94.5
786.032	95.8
786.423	95.9
786.813	112
787.204	88.1
787.594	95.2
787.985	91.1
788.375	81.2
788.766	79.4
789.156	64.8
789.546	63.7
789.936	59.7
790.326	58.7
790.717	62
791.107	62.1
791.497	55.3
791.886	47.9
792.276	59.5
792.666	49
793.056	51
793.445	45.2
793.835	50.7
794.225	36.2
794.614	54.5
795.004	39.4
795.393	39.5
795.782	37.5
796.172	44.1
796.561	59.1
796.95	46.8
797.339	41.4
797.728	49.1
798.117	42.3
798.506	51.1
798.895	37.8
799.284	37.8
799.673	46
800.061	37.2
800.45	48.7
800.839	42.8
801.227	37.2
801.616	39.2
802.004	38.6
802.392	33.3
802.781	37.7
803.169	34.2
803.557	31.1
803.945	26.2
804.333	22.1
804.721	30.6
805.109	33.9
805.497	25.6
805.885	30.6
806.273	30.8
806.661	33.5
807.048	32.9
807.436	26.2
807.824	18.5
808.211	22.9
808.599	22.7
808.986	30.9
809.373	29.1
809.761	20
810.148	26.3
810.535	29.4
810.922	14.8
811.309	23.6
811.696	26.4
812.083	32.7
812.47	30
812.857	28
813.244	23.9
813.631	18.7
814.017	28.6
814.404	35.2
814.791	27
815.177	21.6
815.564	28.1
815.95	28.6
816.336	22.7
816.723	24.4
817.109	22.9
817.495	27.3
817.881	28.3
818.267	33.2
818.653	25.9
819.039	22.1
819.425	24.5
819.811	26
820.197	27.8
820.582	28.2
820.968	25.7
821.354	26.2
821.739	17.7
822.125	18.1
822.51	21.8
822.895	26.7
823.281	25.6
823.666	18
824.051	27.6
824.436	17
824.822	27
825.207	24.4
825.592	20.8
825.976	29.8
826.361	25.4
826.746	29.9
827.131	17.3
827.516	14.1
827.9	25.9
828.285	20.3
828.669	21.4
829.054	22.4
829.438	28.4
829.823	23.4
830.207	24.3
830.591	33.4
830.975	22.4
831.36	20.1
831.744	32.4
832.128	12.4
832.512	22.9
832.895	28.7
833.279	18.1
833.663	22.9
834.047	22.2
834.431	14.5
834.814	29
835.198	6.8
835.581	20
835.965	22.2
836.348	16.7
836.731	24.8
837.115	27.9
837.498	21.1
837.881	28.2
838.264	16.8
838.647	23.3
839.03	19.6
839.413	25.5
839.796	21.5
840.179	17.5
840.562	33.9
840.944	19.6
841.327	14.3
841.71	27.4
842.092	21
842.475	22.2
842.857	26
843.24	20.7
843.622	30.8
844.004	22.7
844.386	22.8
844.769	23.2
845.151	25.3
845.533	28.4
845.915	14.3
846.297	24.9
846.678	21.4
847.06	18.5
847.442	24
847.824	25.4
848.205	27.9
848.587	15.3
848.968	28.2
849.35	18.8
849.731	23.9
850.113	19.9
850.494	20.9
850.875	17.1
851.256	23.1
851.638	21.5
852.019	25.6
852.4	22.9
852.781	26.4
853.161	26
853.542	17.9
853.923	12.5
854.304	18.8
854.685	22.7
855.065	31.6
855.446	17.3
855.826	24
856.207	23.4
856.587	29.6
856.967	18.3
857.348	29
857.728	30.1
858.108	26.8
858.488	20
858.868	14.6
859.248	19.9
859.628	15.3
860.008	15.8
860.388	29.2
860.768	18.7
861.147	13.3
861.527	28.6
861.907	19.2
862.286	26.8
862.666	37.4
863.045	26.1
863.424	33.1
863.804	19.1
864.183	21.8
864.562	25.2
864.941	27.3
865.32	27
865.699	23.3
866.078	20.7
866.457	28.1
866.836	17.8
867.215	26.5
867.594	20
867.972	11.1
868.351	25.9
868.729	22.1
869.108	23
869.486	30.1
869.865	19.8
870.243	30.1
870.621	24.6
871	21.2
871.378	34.2
871.756	31.1
872.134	34.6
872.512	36.4
872.89	30
873.268	32
873.646	30.4
874.023	14.1
874.401	20.2
874.779	23.4
875.156	28
875.534	23.4
875.911	23.4
876.289	10.9
876.666	6.7
877.043	19.7
877.421	24.8
877.798	22.2
878.175	24.8
878.552	18
878.929	23.3
879.306	12.9
879.683	24.8
880.06	21.9
880.437	26.9
880.813	34.8
881.19	26.7
881.567	33.1
881.943	22.5
882.32	27.1
882.696	29.9
883.073	27.3
883.449	19.5
883.825	20.4
884.202	22.8
884.578	20.5
884.954	38.4
885.33	28.9
885.706	23.8
886.082	21.3
886.458	27.8
886.834	34
887.209	23.9
887.585	22.2
887.961	20.5
888.336	25.6
888.712	27.1
889.087	21.6
889.463	27.3
889.838	26.8
890.213	22.5
890.589	23.9
890.964	23.1
891.339	28.3
891.714	26.5
892.089	25.9
892.464	29.9
892.839	20.6
893.214	25
893.589	22.1
893.963	32.6
894.338	24.8
894.713	22
895.087	33.9
895.462	30
895.836	24.5
896.211	22.7
896.585	25.1
896.959	29.2
897.334	28.3
897.708	34
898.082	25.2
898.456	15.9
898.83	30.4
899.204	36.2
899.578	23.9
899.952	22.9
900.325	22.5
900.699	18.5
901.073	23.2
901.446	18.7
901.82	20.5
902.193	30
902.567	21.8
902.94	27
903.313	32.9
903.687	11.2
904.06	22.3
904.433	26.6
904.806	29.9
905.179	29.2
905.552	30.1
905.925	26.4
906.298	27.9
906.671	35.1
907.043	23.3
907.416	20.8
907.789	26.9
908.161	19.2
908.534	33.5
908.906	34.3
909.279	24.1
909.651	28.9
910.023	24.1
910.396	20.5
910.768	35.5
911.14	26.9
911.512	28.9
911.884	31.2
912.256	22.3
912.628	25.2
912.999	39.4
913.371	26.1
913.743	32.1
914.115	27.8
914.486	34.7
914.858	15.3
915.229	23.8
915.601	30.4
915.972	25.6
916.343	28.7
916.715	33.2
917.086	25.3
917.457	32.3
917.828	16.1
918.199	40.4
918.57	29.7
918.941	17.1
919.312	16.5
919.682	27.4
920.053	26.7
920.424	26.5
920.794	27.1
921.165	23.9
921.536	35.8
921.906	30.3
922.276	29
922.647	14.2
923.017	27.7
923.387	23.7
923.757	21.3
924.127	34.1
924.497	31.5
924.867	22
925.237	30.5
925.607	23.9
925.977	21.7
926.347	22.6
926.716	28.9
927.086	29
927.456	24.6
927.825	24.7
928.195	30.5
928.564	22.1
928.933	27.3
929.303	29
929.672	28
930.041	26.1
930.41	29.7
930.779	24.3
931.148	37.6
931.517	29
931.886	24.5
932.255	32.1
932.624	25.3
932.993	28.1
933.361	22.2
933.73	35.7
934.098	33.4
934.467	25.7
934.835	38.5
935.204	22.7
935.572	35.8
935.94	27.7
936.308	32.9
936.677	29.7
937.045	22.7
937.413	37.8
937.781	35.1
938.149	37.4
938.516	36.6
938.884	47.9
939.252	32.3
939.62	32.5
939.987	36.2
940.355	33.5
940.722	33.7
941.09	32
941.457	28.4
941.825	29.1
942.192	30.4
942.559	41
942.926	24
943.293	37.4
943.66	26.2
944.027	24.9
944.394	25
944.761	33.7
945.128	41.1
945.495	35.4
945.861	30.1
946.228	36.2
946.595	32.8
946.961	36.9
947.328	31.5
947.694	31.4
948.06	36.7
948.427	33.8
948.793	26.9
949.159	26
949.525	28.4
949.891	26.9
950.257	29.8
950.623	27.3
950.989	24.7
951.355	25.4
951.721	29.6
952.087	24.1
952.452	29.3
952.818	23.3
953.183	31.1
953.549	23.8
953.914	34.5
954.28	21.7
954.645	20.1
955.01	29.8
955.375	22.4
955.741	19.4
956.106	25.2
956.471	18.4
956.836	21.9
957.201	30.1
957.566	23.2
957.93	26.8
958.295	35.9
958.66	32.4
959.024	42.3
959.389	24.5
959.753	28
960.118	24
960.482	22.1
960.847	29.4
961.211	19.9
961.575	24.4
961.939	28.9
962.303	31.8
962.667	32.8
963.031	16.1
963.395	29.8
963.759	29.3
964.123	23.8
964.487	22.6
964.851	22
965.214	28.3
965.578	22.1
965.941	29.4
966.305	24.3
966.668	34.3
967.032	27.9
967.395	26.1
967.758	33.1
968.121	35.3
968.484	30
968.847	26.5
969.21	25
969.573	27.2
969.936	16.2
970.299	27.8
970.662	34.6
971.025	32.4
971.387	27.8
971.75	19.8
972.112	22.9
972.475	28.1
972.837	25.5
973.2	31.7
973.562	27.7
973.924	30.6
974.286	26.9
974.649	20.2
975.011	21.8
975.373	32.2
975.735	15.8
976.097	24.6
976.458	21.5
976.82	28.8
977.182	27.8
977.544	26.4
977.905	21.5
978.267	30.7
978.628	36
978.99	26.4
979.351	27.6
979.712	30.9
980.074	34.6
980.435	31.1
980.796	31.9
981.157	26.9
981.518	28.6
981.879	29.3
982.24	17.5
982.601	29.7
982.962	19.1
983.323	19.6
983.683	24.9
984.044	25.9
984.404	28.3
984.765	22.9
985.125	33.7
985.486	21.4
985.846	15.3
986.206	22
986.567	11.2
986.927	23.1
987.287	28.8
987.647	23.5
988.007	10.9
988.367	29.4
988.727	20.7
989.087	25.4
989.446	30.2
989.806	38.8
990.166	24.3
990.525	37.8
990.885	17.1
991.244	22.9
991.604	24.8
991.963	26.7
992.322	23.1
992.682	15.7
993.041	22.5
993.4	21
993.759	23.6
994.118	20.3
994.477	20.4
994.836	28.8
995.195	28.3
995.553	26.9
995.912	24.3
996.271	31.6
996.629	28.4
996.988	34.1
997.346	26.4
997.705	22.7
998.063	26.6
998.422	18.1
998.78	33.9
999.138	24.8
999.496	26
999.854	28.1
1000.212	22
1000.57	22.6
1000.928	23.4
1001.286	17.5
1001.644	27.8
1002.001	23.2
1002.359	26.2
1002.717	36.3
1003.074	20.8
1003.432	23.8
1003.789	11.7
1004.147	33
1004.504	24.3
1004.861	24.1
1005.218	22.3
1005.576	32.2
1005.933	33.9
1006.29	23.6
1006.647	23.3
1007.004	20.2
1007.36	27.9
1007.717	25.2
1008.074	32.1
1008.431	25.4
1008.787	20.1
1009.144	23.8
1009.5	23.5
1009.857	20.3
1010.213	10.4
1010.569	27
1010.926	25.8
1011.282	25.1
1011.638	24.7
1011.994	19.9
1012.35	31.6
1012.706	21.6
1013.062	21.9
1013.418	26.1
1013.774	22.1
1014.13	18.6
1014.485	29.6
1014.841	25.4
1015.197	25.4
1015.552	20.4
1015.907	23.3
1016.263	28.8
1016.618	19.5
1016.974	28.1
1017.329	21.3
1017.684	17.5
1018.039	19.6
1018.394	24.2
1018.749	13.4
1019.104	14
1019.459	22.4
1019.814	29.1
1020.168	14.9
1020.523	22.5
1020.878	30.2
1021.232	12.7
1021.587	15.5
1021.941	22.1
1022.296	21.5
1022.65	20.3
1023.004	26.7
1023.359	25.6
1023.713	19.8
1024.067	10.7
1024.421	14.7
1024.775	22.5
1025.129	29.9
1025.483	26.9
1025.837	18.4
1026.19	26.8
1026.544	16.7
1026.898	19.9
1027.251	25.1
1027.605	19.8
1027.958	16.5
1028.312	19.1
1028.665	19.7
1029.018	18.9
1029.372	23
1029.725	27
1030.078	27.1
1030.431	22.1
1030.784	20.9
1031.137	27.6
1031.49	16.4
1031.843	24.8
1032.195	23.2
1032.548	14.1
1032.901	25.3
1033.253	22.1
1033.606	22.6
1033.958	32.3
1034.311	21.3
1034.663	18.5
1035.016	21.6
1035.368	8.7
1035.72	22.1
1036.072	26.9
1036.424	32.1
1036.776	32
1037.128	20.9
1037.48	18.5
